title:Eleccion1, start timestamp:1649269238.424856, stop timestamp:1649269257.405501, headset type:EPOCPLUS, headset serial:4A2C0467, headset firmware:633, channels:67, sampling rate:eeg_128;mot_32, samples:2428      , version:2.1, 
Timestamp,OriginalTimestamp,EEG.Counter,EEG.Interpolated,EEG.AF3,EEG.F7,EEG.F3,EEG.FC5,EEG.T7,EEG.P7,EEG.O1,EEG.O2,EEG.P8,EEG.T8,EEG.FC6,EEG.F4,EEG.F8,EEG.AF4,EEG.RawCq,EEG.Battery,EEG.BatteryPercent,MarkerIndex,MarkerType,MarkerValueInt,EEG.MarkerHardware,CQ.AF3,CQ.F7,CQ.F3,CQ.FC5,CQ.T7,CQ.P7,CQ.O1,CQ.O2,CQ.P8,CQ.T8,CQ.FC6,CQ.F4,CQ.F8,CQ.AF4,CQ.Overall,EQ.SampleRateQuality,EQ.OVERALL,EQ.AF3,EQ.F7,EQ.F3,EQ.FC5,EQ.T7,EQ.P7,EQ.O1,EQ.O2,EQ.P8,EQ.T8,EQ.FC6,EQ.F4,EQ.F8,EQ.AF4,MOT.CounterMems,MOT.InterpolatedMems,MOT.Q0,MOT.Q1,MOT.Q2,MOT.Q3,MOT.AccX,MOT.AccY,MOT.AccZ,MOT.MagX,MOT.MagY,MOT.MagZ
1649269238.424856,1649269238.480505,52.000000,0.000000,4249.487305,4215.000000,4245.641113,4243.974121,4247.436035,4240.897461,4234.230957,4242.563965,4247.948730,4249.615234,4265.256348,4245.000000,4261.538574,4252.820313,0.000000,3.000000,55.000000,,,,0.000000,4.000000,4.000000,4.000000,4.000000,4.000000,4.000000,4.000000,4.000000,4.000000,4.000000,4.000000,4.000000,4.000000,4.000000,100.000000,,,,,,,,,,,,,,,,,13.000000,0.000000,0.169982,-0.665100,0.156067,-0.710205,0.893568,-0.446296,0.072755,-31.702145,-112.153809,-1.046769
1649269238.432677,1649269238.488231,53.000000,0.000000,4242.563965,4215.256348,4245.897461,4246.153809,4246.025879,4244.230957,4232.692383,4235.769043,4243.974121,4248.205078,4257.820313,4242.948730,4252.436035,4249.358887,0.000000,3.000000,55.000000,,,,0.000000,4.000000,4.000000,4.000000,4.000000,4.000000,4.000000,4.000000,4.000000,4.000000,4.000000,4.000000,4.000000,4.000000,4.000000,100.000000,,,,,,,,,,,,,,,,,,,,,,,,,,,,
1649269238.440498,1649269238.495956,54.000000,0.000000,4242.563965,4217.563965,4247.051270,4248.461426,4238.333496,4242.051270,4232.948730,4234.230957,4244.743652,4248.589844,4262.948730,4244.230957,4253.974121,4248.333496,0.000000,3.000000,55.000000,,,,0.000000,4.000000,4.000000,4.000000,4.000000,4.000000,4.000000,4.000000,4.000000,4.000000,4.000000,4.000000,4.000000,4.000000,4.000000,100.000000,,,,,,,,,,,,,,,,,,,,,,,,,,,,
1649269238.448318,1649269238.503782,55.000000,0.000000,4245.256348,4216.025879,4243.333496,4242.179688,4231.153809,4237.179688,4232.692383,4238.589844,4245.769043,4249.102539,4264.871582,4245.769043,4259.230957,4247.307617,0.000000,3.000000,55.000000,,,,0.000000,4.000000,4.000000,4.000000,4.000000,4.000000,4.000000,4.000000,4.000000,4.000000,4.000000,4.000000,4.000000,4.000000,4.000000,100.000000,,,,,,,,,,,,,,,,,,,,,,,,,,,,
1649269238.456139,1649269238.511508,56.000000,0.000000,4241.153809,4214.102539,4240.897461,4237.692383,4236.153809,4234.358887,4232.820313,4243.589844,4246.538574,4251.153809,4262.948730,4245.769043,4254.230957,4244.871582,0.000000,3.000000,55.000000,,,,0.000000,4.000000,4.000000,4.000000,4.000000,4.000000,4.000000,4.000000,4.000000,4.000000,4.000000,4.000000,4.000000,4.000000,4.000000,100.000000,,,,,,,,,,,,,,,,,14.000000,0.000000,0.170038,-0.665100,0.156006,-0.710205,0.904799,-0.454597,0.051759,-32.449837,-111.854736,-1.794461
1649269238.463959,1649269238.519333,57.000000,0.000000,4239.615234,4213.461426,4246.410156,4243.333496,4247.436035,4239.615234,4235.128418,4245.256348,4248.077148,4251.538574,4260.000000,4238.846191,4249.230957,4245.512695,0.000000,3.000000,55.000000,,,,0.000000,4.000000,4.000000,4.000000,4.000000,4.000000,4.000000,4.000000,4.000000,4.000000,4.000000,4.000000,4.000000,4.000000,4.000000,100.000000,,,,,,,,,,,,,,,,,,,,,,,,,,,,
1649269238.471780,1649269238.527059,58.000000,0.000000,4244.615234,4214.743652,4249.358887,4249.230957,4248.717773,4243.205078,4236.025879,4240.512695,4242.948730,4248.589844,4260.769043,4233.589844,4249.743652,4248.461426,0.000000,3.000000,55.000000,,,,0.000000,4.000000,4.000000,4.000000,4.000000,4.000000,4.000000,4.000000,4.000000,4.000000,4.000000,4.000000,4.000000,4.000000,4.000000,100.000000,,,,,,,,,,,,,,,,,,,,,,,,,,,,
1649269238.479601,1649269238.534885,59.000000,0.000000,4245.897461,4216.282227,4240.128418,4243.717773,4237.179688,4236.025879,4234.358887,4233.461426,4239.358887,4246.025879,4265.128418,4236.025879,4249.487305,4250.897461,0.000000,3.000000,55.000000,,,,0.000000,4.000000,4.000000,4.000000,4.000000,4.000000,4.000000,4.000000,4.000000,4.000000,4.000000,4.000000,4.000000,4.000000,4.000000,100.000000,,,,,,,,,,,,,,,,,,,,,,,,,,,,
1649269238.487421,1649269238.542610,60.000000,0.000000,4237.692383,4213.717773,4233.846191,4234.230957,4230.897461,4234.615234,4233.974121,4235.000000,4244.487305,4245.769043,4257.051270,4236.153809,4244.102539,4245.897461,0.000000,3.000000,55.000000,,,,0.000000,4.000000,4.000000,4.000000,4.000000,4.000000,4.000000,4.000000,4.000000,4.000000,4.000000,4.000000,4.000000,4.000000,4.000000,100.000000,,,,,,,,,,,,,,,,,15.000000,0.000000,0.169782,-0.665100,0.156006,-0.710266,0.914565,-0.443366,0.075196,-34.094757,-112.153809,-2.841230
1649269238.495242,1649269238.550436,61.000000,0.000000,4230.000000,4210.897461,4236.153809,4231.666504,4239.358887,4242.436035,4235.128418,4242.051270,4245.000000,4247.051270,4245.512695,4231.922852,4237.179688,4234.102539,0.000000,3.000000,55.000000,,,,0.000000,4.000000,4.000000,4.000000,4.000000,4.000000,4.000000,4.000000,4.000000,4.000000,4.000000,4.000000,4.000000,4.000000,4.000000,100.000000,,,,,,,,,,,,,,,,,,,,,,,,,,,,
1649269238.503062,1649269238.558162,62.000000,0.000000,4231.282227,4212.948730,4236.282227,4234.871582,4250.512695,4242.692383,4233.461426,4244.615234,4238.974121,4247.692383,4245.384766,4232.563965,4237.948730,4235.641113,0.000000,3.000000,55.000000,,,,0.000000,4.000000,4.000000,4.000000,4.000000,4.000000,4.000000,4.000000,4.000000,4.000000,4.000000,4.000000,4.000000,4.000000,4.000000,100.000000,,,,,,,,,,,,,,,,,,,,,,,,,,,,
1649269238.510883,1649269238.565987,63.000000,0.000000,4236.153809,4212.179688,4235.769043,4236.922852,4247.051270,4242.436035,4232.436035,4247.948730,4242.179688,4247.436035,4249.871582,4237.051270,4247.820313,4248.846191,0.000000,3.000000,55.000000,,,,0.000000,4.000000,4.000000,4.000000,4.000000,4.000000,4.000000,4.000000,4.000000,4.000000,4.000000,4.000000,4.000000,4.000000,4.000000,100.000000,,,,,,,,,,,,,,,,,,,,,,,,,,,,
1649269238.518704,1649269238.573713,64.000000,0.000000,4232.563965,4203.846191,4238.333496,4234.102539,4234.743652,4243.846191,4234.743652,4251.794922,4249.102539,4245.641113,4246.538574,4233.717773,4247.436035,4248.077148,2854.000000,3.000000,55.000000,,,,0.000000,4.000000,4.000000,4.000000,4.000000,4.000000,4.000000,4.000000,4.000000,4.000000,4.000000,4.000000,4.000000,4.000000,4.000000,100.000000,,,,,,,,,,,,,,,,,16.000000,0.000000,0.169438,-0.664978,0.156067,-0.710449,0.905287,-0.445808,0.056153,-32.898453,-110.807968,-0.299077
1649269238.526524,1649269238.581539,65.000000,0.000000,4226.538574,4198.589844,4236.153809,4230.769043,4231.410156,4236.538574,4233.974121,4246.794922,4242.307617,4245.384766,4238.589844,4226.794922,4240.897461,4235.512695,3349.000000,3.000000,55.000000,,,,0.000000,4.000000,4.000000,4.000000,4.000000,4.000000,4.000000,4.000000,4.000000,4.000000,4.000000,4.000000,4.000000,4.000000,4.000000,100.000000,,,,,,,,,,,,,,,,,,,,,,,,,,,,
1649269238.534345,1649269238.589264,66.000000,0.000000,4230.256348,4202.179688,4232.692383,4230.512695,4236.794922,4232.051270,4229.230957,4240.897461,4234.102539,4246.025879,4236.282227,4227.692383,4239.615234,4229.871582,3400.000000,3.000000,55.000000,,,,0.000000,4.000000,4.000000,4.000000,4.000000,4.000000,4.000000,4.000000,4.000000,4.000000,4.000000,4.000000,4.000000,4.000000,4.000000,100.000000,,,,,,,,,,,,,,,,,,,,,,,,,,,,
1649269238.542165,1649269238.597090,67.000000,0.000000,4235.000000,4204.743652,4240.128418,4231.666504,4242.436035,4241.922852,4231.410156,4242.692383,4239.230957,4244.230957,4241.538574,4232.948730,4235.000000,4230.897461,2945.000000,3.000000,55.000000,,,,0.000000,4.000000,4.000000,4.000000,4.000000,4.000000,4.000000,4.000000,4.000000,4.000000,4.000000,4.000000,4.000000,4.000000,4.000000,100.000000,,,,,,,,,,,,,,,,,,,,,,,,,,,,
1649269238.549986,1649269238.604816,68.000000,0.000000,4236.922852,4203.461426,4245.512695,4231.922852,4243.717773,4247.179688,4239.871582,4247.436035,4244.102539,4243.077148,4249.358887,4235.512695,4238.589844,4233.077148,3443.000000,3.000000,55.000000,,,,0.000000,4.000000,4.000000,4.000000,4.000000,4.000000,4.000000,4.000000,4.000000,4.000000,4.000000,4.000000,4.000000,4.000000,4.000000,100.000000,,,,,,,,,,,,,,,,,17.000000,0.000000,0.169461,-0.664856,0.156006,-0.710571,0.921889,-0.431159,0.062501,-33.347065,-111.854736,-0.598154
1649269238.557807,1649269238.612641,69.000000,0.000000,4236.666504,4202.563965,4236.282227,4231.153809,4243.846191,4237.563965,4240.000000,4247.307617,4236.025879,4245.641113,4247.179688,4231.410156,4248.205078,4233.333496,3187.000000,3.000000,55.000000,,,,0.000000,4.000000,4.000000,4.000000,4.000000,4.000000,4.000000,4.000000,4.000000,4.000000,4.000000,4.000000,4.000000,4.000000,4.000000,100.000000,,,,,,,,,,,,,,,,,,,,,,,,,,,,
1649269238.565627,1649269238.620367,70.000000,0.000000,4226.794922,4199.615234,4226.666504,4231.153809,4244.871582,4233.333496,4232.692383,4238.846191,4230.384766,4248.461426,4237.563965,4221.025879,4240.128418,4229.102539,3415.000000,3.000000,55.000000,,,,0.000000,4.000000,4.000000,4.000000,4.000000,4.000000,4.000000,4.000000,4.000000,4.000000,4.000000,4.000000,4.000000,4.000000,4.000000,100.000000,,,,,,,,,,,,,,,,,,,,,,,,,,,,
1649269238.573448,1649269238.628093,71.000000,0.000000,4221.282227,4197.948730,4229.615234,4232.563965,4248.589844,4236.538574,4230.256348,4231.410156,4232.563965,4245.256348,4232.436035,4216.794922,4230.897461,4227.436035,3375.000000,3.000000,55.000000,,,,0.000000,4.000000,4.000000,4.000000,4.000000,4.000000,4.000000,4.000000,4.000000,4.000000,4.000000,4.000000,4.000000,4.000000,4.000000,100.000000,,,,,,,,,,,,,,,,,,,,,,,,,,,,
1649269238.581269,1649269238.635918,72.000000,0.000000,4227.820313,4200.641113,4233.846191,4234.102539,4249.102539,4233.846191,4231.538574,4232.179688,4231.410156,4240.897461,4231.538574,4220.897461,4234.102539,4227.436035,3924.000000,3.000000,55.000000,,,,0.000000,4.000000,4.000000,4.000000,4.000000,4.000000,4.000000,4.000000,4.000000,4.000000,4.000000,4.000000,4.000000,4.000000,4.000000,100.000000,,,,,,,,,,,,,,,,,18.000000,0.000000,0.169518,-0.664856,0.155945,-0.710571,0.906264,-0.447272,0.061524,-33.047989,-110.508888,-2.990768
1649269238.589089,1649269238.643644,73.000000,0.000000,4228.589844,4196.282227,4229.615234,4233.077148,4239.487305,4234.871582,4233.461426,4236.153809,4233.974121,4243.461426,4231.282227,4219.743652,4234.102539,4221.666504,3428.000000,3.000000,55.000000,,,,0.000000,4.000000,4.000000,4.000000,4.000000,4.000000,4.000000,4.000000,4.000000,4.000000,4.000000,4.000000,4.000000,4.000000,4.000000,100.000000,,,,,,,,,,,,,,,,,,,,,,,,,,,,
1649269238.596910,1649269238.651470,74.000000,0.000000,4225.256348,4190.000000,4228.077148,4230.128418,4232.436035,4243.589844,4237.436035,4240.384766,4243.077148,4247.692383,4233.589844,4220.000000,4230.512695,4215.897461,3300.000000,3.000000,55.000000,,,,0.000000,4.000000,4.000000,4.000000,4.000000,4.000000,4.000000,4.000000,4.000000,4.000000,4.000000,4.000000,4.000000,4.000000,4.000000,100.000000,,,,,,,,,,,,,,,,,,,,,,,,,,,,
1649269238.604730,1649269238.659195,75.000000,0.000000,4226.153809,4195.384766,4231.282227,4228.205078,4235.256348,4240.512695,4236.282227,4244.743652,4242.692383,4246.666504,4235.128418,4230.000000,4233.333496,4218.846191,3379.000000,3.000000,55.000000,,,,0.000000,4.000000,4.000000,4.000000,4.000000,4.000000,4.000000,4.000000,4.000000,4.000000,4.000000,4.000000,4.000000,4.000000,4.000000,100.000000,,,,,,,,,,,,,,,,,,,,,,,,,,,,
1649269238.612551,1649269238.667021,76.000000,0.000000,4222.436035,4199.871582,4232.820313,4227.692383,4237.051270,4233.205078,4234.743652,4245.256348,4234.358887,4245.512695,4233.974121,4233.077148,4236.282227,4220.512695,3342.000000,3.000000,55.000000,,,,0.000000,4.000000,4.000000,4.000000,4.000000,4.000000,4.000000,4.000000,4.000000,4.000000,4.000000,4.000000,4.000000,4.000000,4.000000,100.000000,,,,,,,,,,,,,,,,,19.000000,0.000000,0.169518,-0.664856,0.155945,-0.710571,0.896498,-0.444343,0.070314,-34.094757,-110.807968,-2.841230
1649269238.620372,1649269238.674747,77.000000,0.000000,4217.051270,4197.179688,4232.692383,4230.256348,4234.615234,4239.358887,4240.769043,4241.410156,4236.410156,4245.769043,4240.128418,4229.102539,4236.410156,4217.563965,3307.000000,3.000000,55.000000,,,,0.000000,4.000000,4.000000,4.000000,4.000000,4.000000,4.000000,4.000000,4.000000,4.000000,4.000000,4.000000,4.000000,4.000000,4.000000,100.000000,,,,,,,,,,,,,,,,,,,,,,,,,,,,
1649269238.628192,1649269238.682572,78.000000,0.000000,4218.589844,4200.128418,4232.692383,4234.230957,4237.307617,4246.666504,4241.538574,4245.256348,4244.871582,4244.358887,4246.410156,4230.000000,4238.461426,4219.871582,3300.000000,3.000000,55.000000,,,,0.000000,4.000000,4.000000,4.000000,4.000000,4.000000,4.000000,4.000000,4.000000,4.000000,4.000000,4.000000,4.000000,4.000000,4.000000,100.000000,,,,,,,,,,,,,,,,,,,,,,,,,,,,
1649269238.636013,1649269238.690298,79.000000,0.000000,4216.794922,4203.717773,4231.153809,4230.897461,4235.000000,4242.436035,4234.102539,4245.000000,4241.153809,4241.922852,4242.307617,4229.615234,4241.153809,4218.846191,3379.000000,3.000000,55.000000,,,,0.000000,4.000000,4.000000,4.000000,4.000000,4.000000,4.000000,4.000000,4.000000,4.000000,4.000000,4.000000,4.000000,4.000000,4.000000,100.000000,,,,,,,,,,,,,,,,,,,,,,,,,,,,
1649269238.643834,1649269238.698124,80.000000,0.000000,4215.769043,4200.512695,4229.743652,4226.538574,4228.205078,4239.615234,4234.358887,4236.922852,4238.589844,4244.615234,4245.512695,4228.333496,4243.205078,4217.563965,3342.000000,3.000000,55.000000,,,,0.000000,4.000000,4.000000,4.000000,4.000000,4.000000,4.000000,4.000000,4.000000,4.000000,4.000000,4.000000,4.000000,4.000000,4.000000,100.000000,,,,,,,,,,,,,,,,,20.000000,0.000000,0.169646,-0.664917,0.155823,-0.710510,0.901869,-0.439460,0.071778,-32.748913,-111.705193,-2.990768
1649269238.651654,1649269238.705849,81.000000,0.000000,4220.641113,4201.153809,4231.410156,4230.769043,4237.948730,4244.743652,4244.487305,4238.077148,4245.897461,4249.102539,4249.102539,4230.000000,4243.717773,4225.769043,3307.000000,3.000000,55.000000,,,,0.000000,4.000000,4.000000,4.000000,4.000000,4.000000,4.000000,4.000000,4.000000,4.000000,4.000000,4.000000,4.000000,4.000000,4.000000,100.000000,,,,,,,,,,,,,,,,,,,,,,,,,,,,
1649269238.659475,1649269238.713675,82.000000,0.000000,4217.179688,4204.743652,4232.436035,4234.871582,4251.794922,4246.282227,4246.025879,4246.538574,4248.333496,4248.077148,4238.333496,4230.769043,4243.974121,4226.025879,3300.000000,3.000000,55.000000,,,,0.000000,4.000000,4.000000,4.000000,4.000000,4.000000,4.000000,4.000000,4.000000,4.000000,4.000000,4.000000,4.000000,4.000000,4.000000,100.000000,,,,,,,,,,,,,,,,,,,,,,,,,,,,
1649269238.667295,1649269238.721401,83.000000,0.000000,4214.102539,4204.230957,4230.897461,4232.307617,4245.897461,4244.615234,4237.307617,4249.871582,4249.743652,4253.589844,4237.051270,4231.538574,4246.666504,4222.051270,3379.000000,3.000000,55.000000,,,,0.000000,4.000000,4.000000,4.000000,4.000000,4.000000,4.000000,4.000000,4.000000,4.000000,4.000000,4.000000,4.000000,4.000000,4.000000,100.000000,,,,,,,,,,,,,,,,,,,,,,,,,,,,
1649269238.675116,1649269238.729226,84.000000,0.000000,4226.282227,4202.820313,4232.179688,4229.615234,4233.333496,4246.410156,4233.077148,4251.153809,4256.666504,4263.461426,4250.128418,4234.230957,4250.897461,4230.128418,3342.000000,3.000000,55.000000,,,,0.000000,4.000000,4.000000,4.000000,4.000000,4.000000,4.000000,4.000000,4.000000,4.000000,4.000000,4.000000,4.000000,4.000000,4.000000,100.000000,,,,,,,,,,,,,,,,,21.000000,0.000000,0.169686,-0.664856,0.155762,-0.710571,0.913588,-0.439948,0.068360,-32.449837,-113.350121,-1.794461
1649269238.682937,1649269238.736952,85.000000,0.000000,4230.641113,4201.282227,4234.358887,4231.025879,4232.948730,4246.666504,4235.897461,4252.563965,4253.589844,4257.563965,4248.717773,4234.102539,4247.820313,4229.871582,3307.000000,3.000000,55.000000,,,,0.000000,4.000000,4.000000,4.000000,4.000000,4.000000,4.000000,4.000000,4.000000,4.000000,4.000000,4.000000,4.000000,4.000000,4.000000,100.000000,0.976563,100.000000,4.000000,4.000000,4.000000,4.000000,4.000000,4.000000,4.000000,4.000000,4.000000,4.000000,4.000000,4.000000,4.000000,4.000000,,,,,,,,,,,,
1649269238.690757,1649269238.744778,86.000000,0.000000,4219.230957,4201.025879,4233.077148,4231.025879,4232.563965,4242.051270,4237.307617,4248.333496,4244.871582,4245.897461,4239.230957,4230.512695,4235.000000,4214.230957,3300.000000,3.000000,55.000000,,,,0.000000,4.000000,4.000000,4.000000,4.000000,4.000000,4.000000,4.000000,4.000000,4.000000,4.000000,4.000000,4.000000,4.000000,4.000000,100.000000,,,,,,,,,,,,,,,,,,,,,,,,,,,,
1649269238.698578,1649269238.752503,87.000000,0.000000,4218.846191,4201.410156,4231.025879,4228.846191,4230.897461,4241.025879,4232.179688,4248.205078,4249.358887,4251.538574,4244.358887,4229.871582,4234.358887,4215.512695,3379.000000,3.000000,55.000000,,,,0.000000,4.000000,4.000000,4.000000,4.000000,4.000000,4.000000,4.000000,4.000000,4.000000,4.000000,4.000000,4.000000,4.000000,4.000000,100.000000,,,,,,,,,,,,,,,,,,,,,,,,,,,,
1649269238.706398,1649269238.760329,88.000000,0.000000,4230.000000,4201.282227,4230.256348,4228.846191,4233.717773,4244.871582,4230.256348,4258.589844,4261.538574,4263.077148,4250.769043,4232.563965,4251.153809,4231.025879,3342.000000,3.000000,55.000000,,,,0.000000,4.000000,4.000000,4.000000,4.000000,4.000000,4.000000,4.000000,4.000000,4.000000,4.000000,4.000000,4.000000,4.000000,4.000000,100.000000,,,,,,,,,,,,,,,,,22.000000,0.000000,0.169829,-0.664856,0.155884,-0.710510,0.907729,-0.454109,0.061524,-32.300297,-110.508888,-2.243076
1649269238.714219,1649269238.768055,89.000000,0.000000,4232.179688,4208.205078,4230.897461,4231.538574,4232.179688,4245.641113,4239.358887,4265.384766,4265.384766,4262.948730,4247.179688,4234.743652,4255.897461,4236.153809,3307.000000,3.000000,55.000000,,,,0.000000,4.000000,4.000000,4.000000,4.000000,4.000000,4.000000,4.000000,4.000000,4.000000,4.000000,4.000000,4.000000,4.000000,4.000000,100.000000,,,,,,,,,,,,,,,,,,,,,,,,,,,,
1649269238.722040,1649269238.775880,90.000000,0.000000,4228.974121,4213.205078,4232.051270,4232.563965,4228.974121,4245.641113,4245.000000,4258.717773,4256.153809,4258.846191,4249.487305,4233.846191,4247.948730,4233.717773,3300.000000,3.000000,55.000000,,,,0.000000,4.000000,4.000000,4.000000,4.000000,4.000000,4.000000,4.000000,4.000000,4.000000,4.000000,4.000000,4.000000,4.000000,4.000000,100.000000,,,,,,,,,,,,,,,,,,,,,,,,,,,,
1649269238.729860,1649269238.783606,91.000000,0.000000,4230.641113,4207.948730,4230.512695,4230.128418,4229.871582,4245.897461,4237.051270,4246.282227,4246.538574,4258.589844,4258.717773,4232.179688,4247.948730,4229.358887,3379.000000,3.000000,55.000000,,,,0.000000,4.000000,4.000000,4.000000,4.000000,4.000000,4.000000,4.000000,4.000000,4.000000,4.000000,4.000000,4.000000,4.000000,4.000000,100.000000,,,,,,,,,,,,,,,,,,,,,,,,,,,,
1649269238.737681,1649269238.791432,92.000000,0.000000,4231.666504,4206.538574,4228.846191,4230.128418,4230.897461,4244.487305,4230.897461,4246.538574,4253.717773,4261.922852,4259.487305,4234.230957,4252.179688,4229.487305,3342.000000,3.000000,55.000000,,,,0.000000,4.000000,4.000000,4.000000,4.000000,4.000000,4.000000,4.000000,4.000000,4.000000,4.000000,4.000000,4.000000,4.000000,4.000000,100.000000,,,,,,,,,,,,,,,,,23.000000,0.000000,0.169479,-0.665039,0.155762,-0.710449,0.893080,-0.450690,0.064454,-33.496605,-110.209808,-1.644923
1649269238.745502,1649269238.799157,93.000000,0.000000,4229.743652,4210.641113,4230.897461,4232.307617,4232.563965,4242.820313,4233.077148,4254.615234,4262.563965,4263.846191,4251.922852,4235.256348,4251.538574,4235.256348,3307.000000,3.000000,55.000000,,,,0.000000,4.000000,4.000000,4.000000,4.000000,4.000000,4.000000,4.000000,4.000000,4.000000,4.000000,4.000000,4.000000,4.000000,4.000000,100.000000,,,,,,,,,,,,,,,,,,,,,,,,,,,,
1649269238.753322,1649269238.806983,94.000000,0.000000,4228.846191,4210.384766,4231.282227,4229.358887,4236.282227,4243.205078,4233.717773,4252.563965,4258.333496,4261.794922,4251.410156,4234.743652,4254.358887,4232.179688,3300.000000,3.000000,55.000000,,,,0.000000,4.000000,4.000000,4.000000,4.000000,4.000000,4.000000,4.000000,4.000000,4.000000,4.000000,4.000000,4.000000,4.000000,4.000000,100.000000,,,,,,,,,,,,,,,,,,,,,,,,,,,,
1649269238.761143,1649269238.814709,95.000000,0.000000,4231.666504,4213.589844,4230.384766,4227.436035,4233.333496,4245.000000,4233.846191,4248.974121,4257.563965,4261.794922,4261.922852,4237.563965,4262.948730,4230.512695,3379.000000,3.000000,55.000000,,,,0.000000,4.000000,4.000000,4.000000,4.000000,4.000000,4.000000,4.000000,4.000000,4.000000,4.000000,4.000000,4.000000,4.000000,4.000000,100.000000,,,,,,,,,,,,,,,,,,,,,,,,,,,,
1649269238.768963,1649269238.822434,96.000000,0.000000,4235.128418,4220.000000,4233.846191,4231.538574,4231.666504,4244.102539,4234.743652,4252.563965,4263.974121,4263.077148,4270.769043,4243.077148,4267.179688,4239.871582,3342.000000,3.000000,55.000000,,,,0.000000,4.000000,4.000000,4.000000,4.000000,4.000000,4.000000,4.000000,4.000000,4.000000,4.000000,4.000000,4.000000,4.000000,4.000000,100.000000,,,,,,,,,,,,,,,,,24.000000,0.000000,0.169647,-0.665039,0.155579,-0.710449,0.910170,-0.433112,0.069337,-34.094757,-110.807968,-3.289845
1649269238.776784,1649269238.830260,97.000000,0.000000,4235.000000,4216.794922,4236.538574,4233.461426,4237.820313,4243.333496,4233.077148,4253.077148,4260.641113,4262.051270,4270.000000,4245.641113,4265.641113,4241.666504,3307.000000,3.000000,55.000000,,,,0.000000,4.000000,4.000000,4.000000,4.000000,4.000000,4.000000,4.000000,4.000000,4.000000,4.000000,4.000000,4.000000,4.000000,4.000000,100.000000,,,,,,,,,,,,,,,,,,,,,,,,,,,,
1649269238.784605,1649269238.838086,98.000000,0.000000,4234.102539,4214.487305,4233.077148,4227.563965,4235.769043,4244.102539,4233.205078,4247.563965,4253.846191,4261.025879,4262.948730,4242.307617,4261.666504,4233.717773,3300.000000,3.000000,55.000000,,,,0.000000,4.000000,4.000000,4.000000,4.000000,4.000000,4.000000,4.000000,4.000000,4.000000,4.000000,4.000000,4.000000,4.000000,4.000000,100.000000,,,,,,,,,,,,,,,,,,,,,,,,,,,,
1649269238.792425,1649269238.845811,99.000000,0.000000,4232.563965,4214.871582,4229.487305,4218.461426,4226.025879,4240.512695,4233.461426,4244.487305,4248.461426,4255.128418,4255.641113,4235.897461,4254.743652,4231.666504,3379.000000,3.000000,55.000000,,,,0.000000,4.000000,4.000000,4.000000,4.000000,4.000000,4.000000,4.000000,4.000000,4.000000,4.000000,4.000000,4.000000,4.000000,4.000000,100.000000,,,,,,,,,,,,,,,,,,,,,,,,,,,,
1649269238.800246,1649269238.853637,100.000000,0.000000,4230.256348,4203.846191,4230.512695,4215.769043,4227.692383,4233.846191,4230.769043,4243.974121,4238.461426,4243.974121,4247.179688,4230.769043,4248.333496,4231.794922,3342.000000,3.000000,55.000000,,,,0.000000,4.000000,4.000000,4.000000,4.000000,4.000000,4.000000,4.000000,4.000000,4.000000,4.000000,4.000000,4.000000,4.000000,4.000000,100.000000,,,,,,,,,,,,,,,,,25.000000,0.000000,0.169688,-0.665100,0.155273,-0.710449,0.912123,-0.447761,0.060060,-32.898453,-112.153809,-2.093538
1649269238.808066,1649269238.861363,101.000000,0.000000,4231.282227,4199.871582,4233.846191,4224.615234,4230.128418,4233.205078,4229.871582,4243.589844,4236.538574,4240.769043,4245.256348,4231.922852,4247.692383,4229.487305,3307.000000,3.000000,55.000000,,,,0.000000,4.000000,4.000000,4.000000,4.000000,4.000000,4.000000,4.000000,4.000000,4.000000,4.000000,4.000000,4.000000,4.000000,4.000000,100.000000,,,,,,,,,,,,,,,,,,,,,,,,,,,,
1649269238.815887,1649269238.869088,102.000000,0.000000,4232.692383,4205.512695,4236.153809,4227.820313,4222.436035,4234.358887,4229.358887,4243.974121,4247.051270,4246.794922,4256.025879,4236.282227,4249.487305,4231.538574,3300.000000,3.000000,55.000000,,,,0.000000,4.000000,4.000000,4.000000,4.000000,4.000000,4.000000,4.000000,4.000000,4.000000,4.000000,4.000000,4.000000,4.000000,4.000000,100.000000,,,,,,,,,,,,,,,,,,,,,,,,,,,,
1649269238.823708,1649269238.876914,103.000000,0.000000,4230.384766,4206.794922,4234.102539,4219.230957,4225.384766,4230.641113,4226.410156,4238.974121,4248.717773,4248.333496,4261.025879,4236.410156,4249.615234,4232.179688,3379.000000,3.000000,55.000000,,,,0.000000,4.000000,4.000000,4.000000,4.000000,4.000000,4.000000,4.000000,4.000000,4.000000,4.000000,4.000000,4.000000,4.000000,4.000000,100.000000,,,,,,,,,,,,,,,,,,,,,,,,,,,,
1649269238.831528,1649269238.884740,104.000000,0.000000,4228.589844,4207.948730,4231.153809,4222.563965,4232.563965,4230.256348,4226.282227,4233.205078,4241.666504,4247.692383,4251.794922,4233.205078,4250.384766,4229.102539,3342.000000,3.000000,55.000000,,,,0.000000,4.000000,4.000000,4.000000,4.000000,4.000000,4.000000,4.000000,4.000000,4.000000,4.000000,4.000000,4.000000,4.000000,4.000000,100.000000,,,,,,,,,,,,,,,,,26.000000,0.000000,0.169543,-0.664978,0.155396,-0.710571,0.917494,-0.450690,0.063966,-34.842449,-110.807968,-1.345846
1649269238.839349,1649269238.892465,105.000000,0.000000,4228.333496,4208.077148,4231.410156,4228.717773,4226.153809,4232.563965,4227.948730,4237.179688,4242.307617,4247.307617,4250.000000,4228.077148,4249.358887,4227.179688,3307.000000,3.000000,55.000000,,,,0.000000,4.000000,4.000000,4.000000,4.000000,4.000000,4.000000,4.000000,4.000000,4.000000,4.000000,4.000000,4.000000,4.000000,4.000000,100.000000,,,,,,,,,,,,,,,,,,,,,,,,,,,,
1649269238.847170,1649269238.900191,106.000000,0.000000,4228.974121,4207.948730,4232.179688,4224.743652,4227.179688,4231.922852,4227.307617,4244.102539,4247.563965,4248.589844,4263.846191,4228.717773,4250.384766,4227.563965,3300.000000,3.000000,55.000000,,,,0.000000,4.000000,4.000000,4.000000,4.000000,4.000000,4.000000,4.000000,4.000000,4.000000,4.000000,4.000000,4.000000,4.000000,4.000000,100.000000,,,,,,,,,,,,,,,,,,,,,,,,,,,,
1649269238.854990,1649269238.908017,107.000000,0.000000,4231.025879,4213.974121,4230.512695,4231.153809,4232.436035,4233.077148,4228.717773,4247.692383,4250.128418,4255.000000,4273.461426,4234.871582,4256.922852,4232.436035,3379.000000,3.000000,55.000000,,,,0.000000,4.000000,4.000000,4.000000,4.000000,4.000000,4.000000,4.000000,4.000000,4.000000,4.000000,4.000000,4.000000,4.000000,4.000000,100.000000,,,,,,,,,,,,,,,,,,,,,,,,,,,,
1649269238.862811,1649269238.915742,108.000000,0.000000,4231.153809,4219.230957,4231.153809,4245.512695,4223.974121,4235.384766,4231.922852,4248.461426,4249.358887,4254.615234,4270.128418,4234.230957,4262.307617,4234.102539,3342.000000,3.000000,55.000000,,,,0.000000,4.000000,4.000000,4.000000,4.000000,4.000000,4.000000,4.000000,4.000000,4.000000,4.000000,4.000000,4.000000,4.000000,4.000000,100.000000,,,,,,,,,,,,,,,,,27.000000,0.000000,0.169575,-0.664978,0.155640,-0.710510,0.907240,-0.436530,0.062989,-34.244297,-111.705193,-3.439384
1649269238.870632,1649269238.923568,109.000000,0.000000,4230.641113,4216.538574,4236.025879,4247.948730,4225.128418,4235.000000,4227.179688,4242.436035,4246.922852,4247.307617,4269.487305,4229.230957,4260.256348,4233.589844,3307.000000,3.000000,55.000000,,,,0.000000,4.000000,4.000000,4.000000,4.000000,4.000000,4.000000,4.000000,4.000000,4.000000,4.000000,4.000000,4.000000,4.000000,4.000000,100.000000,,,,,,,,,,,,,,,,,,,,,,,,,,,,
1649269238.878452,1649269238.931294,110.000000,0.000000,4231.282227,4215.128418,4236.410156,4247.051270,4235.769043,4232.948730,4222.307617,4233.205078,4246.666504,4243.333496,4275.000000,4230.384766,4254.358887,4235.128418,3300.000000,3.000000,55.000000,,,,0.000000,4.000000,4.000000,4.000000,4.000000,4.000000,4.000000,4.000000,4.000000,4.000000,4.000000,4.000000,4.000000,4.000000,4.000000,100.000000,,,,,,,,,,,,,,,,,,,,,,,,,,,,
1649269238.886273,1649269238.939019,111.000000,0.000000,4230.769043,4216.025879,4232.563965,4249.230957,4228.589844,4232.051270,4227.307617,4236.410156,4245.769043,4244.230957,4275.256348,4232.051270,4255.128418,4235.512695,3379.000000,3.000000,55.000000,,,,0.000000,4.000000,4.000000,4.000000,4.000000,4.000000,4.000000,4.000000,4.000000,4.000000,4.000000,4.000000,4.000000,4.000000,4.000000,100.000000,,,,,,,,,,,,,,,,,,,,,,,,,,,,
1649269238.894093,1649269238.946845,112.000000,0.000000,4230.384766,4214.230957,4236.282227,4247.692383,4220.897461,4231.153809,4231.282227,4243.717773,4245.769043,4246.794922,4269.102539,4230.769043,4260.897461,4236.666504,3342.000000,3.000000,55.000000,,,,0.000000,4.000000,4.000000,4.000000,4.000000,4.000000,4.000000,4.000000,4.000000,4.000000,4.000000,4.000000,4.000000,4.000000,4.000000,100.000000,,,,,,,,,,,,,,,,,28.000000,0.000000,0.169519,-0.664978,0.155701,-0.710510,0.906264,-0.434577,0.056641,-35.291065,-110.807968,-2.841230
1649269238.901914,1649269238.954571,113.000000,0.000000,4232.436035,4216.282227,4243.205078,4250.128418,4227.948730,4230.769043,4228.846191,4239.102539,4247.179688,4247.820313,4267.179688,4234.487305,4260.769043,4245.641113,3307.000000,3.000000,55.000000,,,,0.000000,4.000000,4.000000,4.000000,4.000000,4.000000,4.000000,4.000000,4.000000,4.000000,4.000000,4.000000,4.000000,4.000000,4.000000,100.000000,,,,,,,,,,,,,,,,,,,,,,,,,,,,
1649269238.909735,1649269238.962396,114.000000,0.000000,4232.307617,4215.512695,4240.897461,4252.307617,4230.641113,4230.641113,4229.615234,4233.846191,4244.358887,4242.692383,4271.282227,4236.025879,4253.589844,4250.256348,3300.000000,3.000000,55.000000,,,,0.000000,4.000000,4.000000,4.000000,4.000000,4.000000,4.000000,4.000000,4.000000,4.000000,4.000000,4.000000,4.000000,4.000000,4.000000,100.000000,,,,,,,,,,,,,,,,,,,,,,,,,,,,
1649269238.917555,1649269238.970122,115.000000,0.000000,4229.487305,4221.794922,4232.948730,4252.179688,4224.871582,4230.897461,4231.538574,4233.077148,4241.666504,4240.000000,4276.538574,4231.794922,4256.153809,4245.256348,3379.000000,3.000000,55.000000,,,,0.000000,4.000000,4.000000,4.000000,4.000000,4.000000,4.000000,4.000000,4.000000,4.000000,4.000000,4.000000,4.000000,4.000000,4.000000,100.000000,,,,,,,,,,,,,,,,,,,,,,,,,,,,
1649269238.925376,1649269238.977948,116.000000,0.000000,4222.051270,4221.153809,4228.974121,4246.410156,4226.538574,4232.948730,4230.256348,4235.384766,4243.717773,4248.461426,4272.179688,4230.256348,4257.179688,4238.846191,3342.000000,3.000000,55.000000,,,,0.000000,4.000000,4.000000,4.000000,4.000000,4.000000,4.000000,4.000000,4.000000,4.000000,4.000000,4.000000,4.000000,4.000000,4.000000,100.000000,,,,,,,,,,,,,,,,,29.000000,0.000000,0.169758,-0.664917,0.155701,-0.710510,0.907729,-0.452155,0.053712,-32.300297,-110.508888,-1.196307
1649269238.933196,1649269238.985773,117.000000,0.000000,4209.358887,4194.358887,4226.922852,4233.077148,4227.307617,4233.589844,4230.897461,4240.384766,4243.205078,4247.436035,4252.563965,4225.641113,4231.282227,4222.948730,3307.000000,3.000000,55.000000,,,,0.000000,4.000000,4.000000,4.000000,4.000000,4.000000,4.000000,4.000000,4.000000,4.000000,4.000000,4.000000,4.000000,4.000000,4.000000,100.000000,,,,,,,,,,,,,,,,,,,,,,,,,,,,
1649269238.941017,1649269238.993499,118.000000,0.000000,4217.563965,4195.897461,4229.615234,4235.769043,4224.487305,4231.410156,4231.025879,4239.230957,4242.179688,4241.794922,4255.128418,4224.102539,4237.948730,4226.922852,3300.000000,3.000000,55.000000,,,,0.000000,4.000000,4.000000,4.000000,4.000000,4.000000,4.000000,4.000000,4.000000,4.000000,4.000000,4.000000,4.000000,4.000000,4.000000,100.000000,,,,,,,,,,,,,,,,,,,,,,,,,,,,
1649269238.948838,1649269239.001325,119.000000,0.000000,4231.538574,4221.025879,4234.230957,4247.563965,4228.205078,4230.128418,4227.179688,4233.974121,4248.205078,4249.230957,4282.051270,4229.615234,4284.871582,4248.077148,3379.000000,3.000000,55.000000,,,,0.000000,4.000000,4.000000,4.000000,4.000000,4.000000,4.000000,4.000000,4.000000,4.000000,4.000000,4.000000,4.000000,4.000000,4.000000,100.000000,,,,,,,,,,,,,,,,,,,,,,,,,,,,
1649269238.956658,1649269239.009050,120.000000,0.000000,4214.230957,4203.077148,4231.666504,4236.794922,4232.692383,4231.666504,4227.436035,4235.641113,4253.461426,4262.563965,4294.487305,4229.743652,4304.358887,4243.461426,3342.000000,3.000000,55.000000,,,,0.000000,4.000000,4.000000,4.000000,4.000000,4.000000,4.000000,4.000000,4.000000,4.000000,4.000000,4.000000,4.000000,4.000000,4.000000,100.000000,,,,,,,,,,,,,,,,,30.000000,0.000000,0.170252,-0.664856,0.155701,-0.710449,0.905287,-0.450690,0.059571,-34.692913,-110.209808,-1.943999
1649269238.964479,1649269239.016876,121.000000,0.000000,4196.410156,4164.102539,4228.205078,4216.410156,4228.461426,4231.666504,4230.512695,4237.051270,4250.512695,4262.179688,4290.897461,4226.410156,4303.717773,4228.846191,3307.000000,3.000000,55.000000,,,,0.000000,4.000000,4.000000,4.000000,4.000000,4.000000,4.000000,4.000000,4.000000,4.000000,4.000000,4.000000,4.000000,4.000000,4.000000,100.000000,,,,,,,,,,,,,,,,,,,,,,,,,,,,
1649269238.972299,1649269239.024602,122.000000,0.000000,4207.436035,4160.641113,4228.333496,4221.153809,4224.487305,4230.769043,4230.256348,4236.538574,4246.922852,4251.666504,4291.282227,4228.974121,4316.922852,4233.077148,3300.000000,3.000000,55.000000,,,,0.000000,4.000000,4.000000,4.000000,4.000000,4.000000,4.000000,4.000000,4.000000,4.000000,4.000000,4.000000,4.000000,4.000000,4.000000,100.000000,,,,,,,,,,,,,,,,,,,,,,,,,,,,
1649269238.980120,1649269239.032427,123.000000,0.000000,4218.589844,4176.922852,4233.077148,4235.769043,4228.205078,4232.820313,4230.769043,4243.461426,4250.512695,4253.333496,4293.205078,4234.615234,4318.333496,4242.692383,3379.000000,3.000000,55.000000,,,,0.000000,4.000000,4.000000,4.000000,4.000000,4.000000,4.000000,4.000000,4.000000,4.000000,4.000000,4.000000,4.000000,4.000000,4.000000,100.000000,,,,,,,,,,,,,,,,,,,,,,,,,,,,
1649269238.987941,1649269239.040253,124.000000,0.000000,4215.384766,4181.153809,4237.436035,4230.256348,4229.358887,4233.974121,4230.256348,4245.641113,4249.487305,4255.256348,4292.051270,4232.051270,4306.538574,4239.615234,3342.000000,3.000000,55.000000,,,,0.000000,4.000000,4.000000,4.000000,4.000000,4.000000,4.000000,4.000000,4.000000,4.000000,4.000000,4.000000,4.000000,4.000000,4.000000,100.000000,,,,,,,,,,,,,,,,,31.000000,0.000000,0.170196,-0.664856,0.155762,-0.710449,0.897963,-0.432624,0.058106,-32.898453,-111.406120,-2.841230
1649269238.995762,1649269239.047979,125.000000,0.000000,4216.282227,4177.436035,4238.077148,4223.077148,4227.820313,4233.205078,4229.230957,4244.615234,4247.948730,4247.820313,4293.717773,4232.563965,4312.563965,4240.641113,3307.000000,3.000000,55.000000,,,,0.000000,4.000000,4.000000,4.000000,4.000000,4.000000,4.000000,4.000000,4.000000,4.000000,4.000000,4.000000,4.000000,4.000000,4.000000,100.000000,,,,,,,,,,,,,,,,,,,,,,,,,,,,
1649269239.003582,1649269239.055804,126.000000,0.000000,4216.153809,4170.000000,4241.538574,4231.666504,4230.128418,4233.846191,4237.948730,4256.025879,4257.436035,4251.794922,4291.666504,4239.358887,4315.000000,4242.179688,3300.000000,3.000000,55.000000,,,,0.000000,4.000000,4.000000,4.000000,4.000000,4.000000,4.000000,4.000000,4.000000,4.000000,4.000000,4.000000,4.000000,4.000000,4.000000,100.000000,,,,,,,,,,,,,,,,,,,,,,,,,,,,
1649269239.011403,1649269239.063530,127.000000,0.000000,4214.743652,4170.769043,4245.641113,4234.358887,4231.794922,4236.282227,4248.461426,4264.230957,4259.743652,4264.487305,4284.871582,4240.769043,4306.922852,4238.333496,53.000000,3.000000,55.000000,,,,0.000000,4.000000,4.000000,4.000000,4.000000,4.000000,4.000000,4.000000,4.000000,4.000000,4.000000,4.000000,4.000000,4.000000,4.000000,100.000000,,,,,,,,,,,,,,,,,,,,,,,,,,,,
1649269239.019223,1649269239.071356,0.000000,0.000000,4217.436035,4173.333496,4246.922852,4220.769043,4226.153809,4237.948730,4246.794922,4259.743652,4248.974121,4265.000000,4281.025879,4240.256348,4307.692383,4237.436035,2845.000000,3.000000,55.000000,,,,0.000000,4.000000,4.000000,4.000000,4.000000,4.000000,4.000000,4.000000,4.000000,4.000000,4.000000,4.000000,4.000000,4.000000,4.000000,100.000000,,,,,,,,,,,,,,,,,0.000000,0.000000,0.170084,-0.664856,0.155884,-0.710449,0.905776,-0.449714,0.070314,-33.496605,-110.508888,-1.644923
1649269239.027044,1649269239.079081,1.000000,0.000000,4219.230957,4170.000000,4243.717773,4216.153809,4217.563965,4238.461426,4241.922852,4258.461426,4252.307617,4258.077148,4281.794922,4241.538574,4306.666504,4242.563965,3346.000000,3.000000,55.000000,,,,0.000000,4.000000,4.000000,4.000000,4.000000,4.000000,4.000000,4.000000,4.000000,4.000000,4.000000,4.000000,4.000000,4.000000,4.000000,100.000000,,,,,,,,,,,,,,,,,,,,,,,,,,,,
1649269239.034865,1649269239.086907,2.000000,0.000000,4223.333496,4171.538574,4239.102539,4222.563965,4217.692383,4237.436035,4244.743652,4265.256348,4263.589844,4262.051270,4284.487305,4240.769043,4300.897461,4246.282227,3400.000000,3.000000,55.000000,,,,0.000000,4.000000,4.000000,4.000000,4.000000,4.000000,4.000000,4.000000,4.000000,4.000000,4.000000,4.000000,4.000000,4.000000,4.000000,100.000000,,,,,,,,,,,,,,,,,,,,,,,,,,,,
1649269239.042685,1649269239.094633,3.000000,0.000000,4228.846191,4171.153809,4235.384766,4220.128418,4221.794922,4236.153809,4243.846191,4268.461426,4261.538574,4265.384766,4282.051270,4231.410156,4295.384766,4236.922852,2946.000000,3.000000,55.000000,,,,0.000000,4.000000,4.000000,4.000000,4.000000,4.000000,4.000000,4.000000,4.000000,4.000000,4.000000,4.000000,4.000000,4.000000,4.000000,100.000000,,,,,,,,,,,,,,,,,,,,,,,,,,,,
1649269239.050506,1649269239.102458,4.000000,0.000000,4227.179688,4168.333496,4230.128418,4216.025879,4224.615234,4234.487305,4234.871582,4261.666504,4256.794922,4256.153809,4279.230957,4225.641113,4297.051270,4232.436035,3443.000000,3.000000,55.000000,,,,0.000000,4.000000,4.000000,4.000000,4.000000,4.000000,4.000000,4.000000,4.000000,4.000000,4.000000,4.000000,4.000000,4.000000,4.000000,100.000000,,,,,,,,,,,,,,,,,1.000000,0.000000,0.169916,-0.664856,0.156067,-0.710449,0.901869,-0.438972,0.054688,-33.945221,-109.761200,-3.439384
1649269239.058326,1649269239.110184,5.000000,0.000000,4220.256348,4169.743652,4222.948730,4217.307617,4227.307617,4231.025879,4231.922852,4251.922852,4255.384766,4247.436035,4278.846191,4226.666504,4297.179688,4231.025879,3186.000000,3.000000,55.000000,,,,0.000000,4.000000,4.000000,4.000000,4.000000,4.000000,4.000000,4.000000,4.000000,4.000000,4.000000,4.000000,4.000000,4.000000,4.000000,100.000000,,,,,,,,,,,,,,,,,,,,,,,,,,,,
1649269239.066147,1649269239.118010,6.000000,0.000000,4222.307617,4171.153809,4221.025879,4216.922852,4226.025879,4230.128418,4234.615234,4246.538574,4249.615234,4253.717773,4276.794922,4222.948730,4290.641113,4222.820313,3415.000000,3.000000,55.000000,,,,0.000000,4.000000,4.000000,4.000000,4.000000,4.000000,4.000000,4.000000,4.000000,4.000000,4.000000,4.000000,4.000000,4.000000,4.000000,100.000000,,,,,,,,,,,,,,,,,,,,,,,,,,,,
1649269239.073968,1649269239.125735,7.000000,0.000000,4231.282227,4169.487305,4229.102539,4217.436035,4219.871582,4232.948730,4237.051270,4246.666504,4249.230957,4264.487305,4278.077148,4217.307617,4289.230957,4225.769043,3371.000000,3.000000,55.000000,,,,0.000000,4.000000,4.000000,4.000000,4.000000,4.000000,4.000000,4.000000,4.000000,4.000000,4.000000,4.000000,4.000000,4.000000,4.000000,100.000000,,,,,,,,,,,,,,,,,,,,,,,,,,,,
1649269239.081788,1649269239.133561,8.000000,0.000000,4231.410156,4168.461426,4230.897461,4218.205078,4217.436035,4234.487305,4240.641113,4247.307617,4252.436035,4262.692383,4278.333496,4218.205078,4292.820313,4232.307617,3903.000000,3.000000,55.000000,,,,0.000000,4.000000,4.000000,4.000000,4.000000,4.000000,4.000000,4.000000,4.000000,4.000000,4.000000,4.000000,4.000000,4.000000,4.000000,100.000000,,,,,,,,,,,,,,,,,2.000000,0.000000,0.169900,-0.664795,0.156067,-0.710510,0.906264,-0.457527,0.057130,-33.646145,-112.153809,-2.841230
1649269239.089609,1649269239.141287,9.000000,0.000000,4230.128418,4170.256348,4228.077148,4213.846191,4218.589844,4234.358887,4245.128418,4250.256348,4250.897461,4257.436035,4274.871582,4228.717773,4295.512695,4231.538574,3426.000000,3.000000,55.000000,,,,0.000000,4.000000,4.000000,4.000000,4.000000,4.000000,4.000000,4.000000,4.000000,4.000000,4.000000,4.000000,4.000000,4.000000,4.000000,100.000000,,,,,,,,,,,,,,,,,,,,,,,,,,,,
1649269239.097429,1649269239.149112,10.000000,0.000000,4234.615234,4169.871582,4229.102539,4206.282227,4214.743652,4234.230957,4247.179688,4250.512695,4247.307617,4253.205078,4273.589844,4233.461426,4294.743652,4231.410156,3296.000000,3.000000,55.000000,,,,0.000000,4.000000,4.000000,4.000000,4.000000,4.000000,4.000000,4.000000,4.000000,4.000000,4.000000,4.000000,4.000000,4.000000,4.000000,100.000000,,,,,,,,,,,,,,,,,,,,,,,,,,,,
1649269239.105250,1649269239.156838,11.000000,0.000000,4233.077148,4167.563965,4230.128418,4203.205078,4212.307617,4233.205078,4245.512695,4245.512695,4246.153809,4245.769043,4275.769043,4230.256348,4292.692383,4233.589844,3378.000000,3.000000,55.000000,,,,0.000000,4.000000,4.000000,4.000000,4.000000,4.000000,4.000000,4.000000,4.000000,4.000000,4.000000,4.000000,4.000000,4.000000,4.000000,100.000000,,,,,,,,,,,,,,,,,,,,,,,,,,,,
1649269239.113071,1649269239.164664,12.000000,0.000000,4231.410156,4168.461426,4230.769043,4202.051270,4218.077148,4231.922852,4242.820313,4251.410156,4249.358887,4252.436035,4278.077148,4230.769043,4294.358887,4233.717773,3338.000000,3.000000,55.000000,,,,0.000000,4.000000,4.000000,4.000000,4.000000,4.000000,4.000000,4.000000,4.000000,4.000000,4.000000,4.000000,4.000000,4.000000,4.000000,100.000000,,,,,,,,,,,,,,,,,3.000000,0.000000,0.170010,-0.664673,0.156189,-0.710571,0.911635,-0.443854,0.056641,-33.646145,-111.107040,-2.542153
1649269239.120891,1649269239.172389,13.000000,0.000000,4239.743652,4171.794922,4231.282227,4202.179688,4221.410156,4232.948730,4239.358887,4261.025879,4252.179688,4262.948730,4277.051270,4233.974121,4294.487305,4234.358887,3303.000000,3.000000,55.000000,,,,0.000000,4.000000,4.000000,4.000000,4.000000,4.000000,4.000000,4.000000,4.000000,4.000000,4.000000,4.000000,4.000000,4.000000,4.000000,100.000000,,,,,,,,,,,,,,,,,,,,,,,,,,,,
1649269239.128712,1649269239.180215,14.000000,0.000000,4243.461426,4172.692383,4230.000000,4210.769043,4219.615234,4233.974121,4237.436035,4255.641113,4250.769043,4256.153809,4273.077148,4234.743652,4288.461426,4233.974121,3296.000000,3.000000,55.000000,,,,0.000000,4.000000,4.000000,4.000000,4.000000,4.000000,4.000000,4.000000,4.000000,4.000000,4.000000,4.000000,4.000000,4.000000,4.000000,100.000000,,,,,,,,,,,,,,,,,,,,,,,,,,,,
1649269239.136533,1649269239.187941,15.000000,0.000000,4234.871582,4168.333496,4228.077148,4212.948730,4219.487305,4233.077148,4238.077148,4246.666504,4247.179688,4244.487305,4264.871582,4231.666504,4279.743652,4230.641113,3378.000000,3.000000,55.000000,,,,0.000000,4.000000,4.000000,4.000000,4.000000,4.000000,4.000000,4.000000,4.000000,4.000000,4.000000,4.000000,4.000000,4.000000,4.000000,100.000000,,,,,,,,,,,,,,,,,,,,,,,,,,,,
1649269239.144353,1649269239.195766,16.000000,0.000000,4232.820313,4170.641113,4231.282227,4208.717773,4218.461426,4234.871582,4242.692383,4249.358887,4248.974121,4248.846191,4263.589844,4229.743652,4280.000000,4232.948730,0.000000,3.000000,55.000000,,,,0.000000,4.000000,4.000000,4.000000,4.000000,4.000000,4.000000,4.000000,4.000000,4.000000,4.000000,4.000000,4.000000,4.000000,4.000000,100.000000,,,,,,,,,,,,,,,,,4.000000,0.000000,0.169898,-0.664673,0.156311,-0.710571,0.902358,-0.454109,0.062501,-33.347065,-110.359352,-3.887999
1649269239.152174,1649269239.203492,17.000000,0.000000,4247.820313,4184.102539,4237.307617,4215.000000,4220.897461,4239.615234,4246.794922,4257.820313,4258.589844,4258.846191,4271.922852,4234.230957,4290.000000,4245.512695,0.000000,3.000000,55.000000,,,,0.000000,4.000000,4.000000,4.000000,4.000000,4.000000,4.000000,4.000000,4.000000,4.000000,4.000000,4.000000,4.000000,4.000000,4.000000,100.000000,,,,,,,,,,,,,,,,,,,,,,,,,,,,
1649269239.159994,1649269239.211218,18.000000,0.000000,4249.871582,4184.871582,4235.000000,4218.846191,4229.871582,4243.205078,4245.384766,4256.794922,4258.461426,4255.384766,4272.820313,4236.538574,4292.948730,4249.358887,0.000000,3.000000,55.000000,,,,0.000000,4.000000,4.000000,4.000000,4.000000,4.000000,4.000000,4.000000,4.000000,4.000000,4.000000,4.000000,4.000000,4.000000,4.000000,100.000000,,,,,,,,,,,,,,,,,,,,,,,,,,,,
1649269239.167815,1649269239.219043,19.000000,0.000000,4236.153809,4176.794922,4229.102539,4211.922852,4233.333496,4244.615234,4245.384766,4249.102539,4248.333496,4247.563965,4265.769043,4230.641113,4288.205078,4238.846191,0.000000,3.000000,55.000000,,,,0.000000,4.000000,4.000000,4.000000,4.000000,4.000000,4.000000,4.000000,4.000000,4.000000,4.000000,4.000000,4.000000,4.000000,4.000000,100.000000,,,,,,,,,,,,,,,,,,,,,,,,,,,,
1649269239.175636,1649269239.226769,20.000000,0.000000,4235.256348,4181.282227,4229.615234,4212.051270,4231.666504,4241.025879,4244.230957,4247.436035,4246.410156,4252.820313,4266.153809,4227.307617,4289.102539,4232.051270,0.000000,3.000000,55.000000,,,,0.000000,4.000000,4.000000,4.000000,4.000000,4.000000,4.000000,4.000000,4.000000,4.000000,4.000000,4.000000,4.000000,4.000000,4.000000,100.000000,,,,,,,,,,,,,,,,,5.000000,0.000000,0.170064,-0.664551,0.156372,-0.710632,0.910170,-0.437507,0.061524,-34.991989,-110.508888,-1.943999
1649269239.183456,1649269239.234595,21.000000,0.000000,4240.128418,4189.358887,4232.051270,4218.205078,4230.384766,4233.333496,4237.051270,4251.153809,4253.846191,4261.410156,4274.615234,4229.487305,4297.051270,4234.871582,0.000000,3.000000,55.000000,,,,0.000000,4.000000,4.000000,4.000000,4.000000,4.000000,4.000000,4.000000,4.000000,4.000000,4.000000,4.000000,4.000000,4.000000,4.000000,100.000000,0.976563,100.000000,4.000000,4.000000,4.000000,4.000000,4.000000,4.000000,4.000000,4.000000,4.000000,4.000000,4.000000,4.000000,4.000000,4.000000,,,,,,,,,,,,
1649269239.191277,1649269239.242320,22.000000,0.000000,4233.461426,4189.102539,4230.641113,4218.846191,4225.384766,4230.128418,4231.666504,4247.436035,4253.205078,4255.128418,4275.769043,4229.358887,4296.666504,4236.794922,0.000000,3.000000,55.000000,,,,0.000000,4.000000,4.000000,4.000000,4.000000,4.000000,4.000000,4.000000,4.000000,4.000000,4.000000,4.000000,4.000000,4.000000,4.000000,100.000000,,,,,,,,,,,,,,,,,,,,,,,,,,,,
1649269239.199098,1649269239.250146,23.000000,0.000000,4225.641113,4183.589844,4228.205078,4215.256348,4217.948730,4233.077148,4231.922852,4241.025879,4247.179688,4245.512695,4266.410156,4224.871582,4285.256348,4233.077148,0.000000,3.000000,55.000000,,,,0.000000,4.000000,4.000000,4.000000,4.000000,4.000000,4.000000,4.000000,4.000000,4.000000,4.000000,4.000000,4.000000,4.000000,4.000000,100.000000,,,,,,,,,,,,,,,,,,,,,,,,,,,,
1649269239.206918,1649269239.257872,24.000000,0.000000,4228.077148,4179.358887,4227.820313,4211.153809,4215.512695,4232.948730,4234.102539,4245.256348,4248.077148,4246.922852,4260.000000,4223.974121,4283.077148,4231.666504,0.000000,3.000000,55.000000,,,,0.000000,4.000000,4.000000,4.000000,4.000000,4.000000,4.000000,4.000000,4.000000,4.000000,4.000000,4.000000,4.000000,4.000000,4.000000,100.000000,,,,,,,,,,,,,,,,,6.000000,0.000000,0.169607,-0.664429,0.156555,-0.710815,0.912123,-0.434577,0.056153,-33.646145,-110.060272,-3.289845
1649269239.214739,1649269239.265697,25.000000,0.000000,4229.743652,4180.897461,4230.128418,4211.922852,4221.922852,4231.666504,4234.615234,4248.589844,4250.256348,4247.948730,4263.974121,4228.846191,4293.974121,4233.333496,0.000000,3.000000,55.000000,,,,0.000000,4.000000,4.000000,4.000000,4.000000,4.000000,4.000000,4.000000,4.000000,4.000000,4.000000,4.000000,4.000000,4.000000,4.000000,100.000000,,,,,,,,,,,,,,,,,,,,,,,,,,,,
1649269239.222559,1649269239.273423,26.000000,0.000000,4229.358887,4186.538574,4232.307617,4213.205078,4228.589844,4232.820313,4233.205078,4240.641113,4249.358887,4246.282227,4268.205078,4229.358887,4295.000000,4235.128418,0.000000,3.000000,55.000000,,,,0.000000,4.000000,4.000000,4.000000,4.000000,4.000000,4.000000,4.000000,4.000000,4.000000,4.000000,4.000000,4.000000,4.000000,4.000000,100.000000,,,,,,,,,,,,,,,,,,,,,,,,,,,,
1649269239.230380,1649269239.281249,27.000000,0.000000,4229.487305,4184.358887,4229.487305,4208.461426,4223.333496,4232.051270,4232.051270,4236.025879,4246.153809,4248.461426,4263.846191,4223.974121,4283.717773,4232.820313,0.000000,3.000000,55.000000,,,,0.000000,4.000000,4.000000,4.000000,4.000000,4.000000,4.000000,4.000000,4.000000,4.000000,4.000000,4.000000,4.000000,4.000000,4.000000,100.000000,,,,,,,,,,,,,,,,,,,,,,,,,,,,
1649269239.238201,1649269239.288974,28.000000,0.000000,4233.974121,4185.128418,4230.256348,4209.615234,4217.820313,4232.051270,4232.179688,4243.461426,4247.820313,4250.897461,4268.205078,4224.102539,4286.666504,4231.282227,0.000000,3.000000,55.000000,,,,0.000000,4.000000,4.000000,4.000000,4.000000,4.000000,4.000000,4.000000,4.000000,4.000000,4.000000,4.000000,4.000000,4.000000,4.000000,100.000000,,,,,,,,,,,,,,,,,7.000000,0.000000,0.169533,-0.664368,0.156616,-0.710876,0.909682,-0.442878,0.066896,-32.748913,-109.462120,-0.897231
1649269239.246021,1649269239.296800,29.000000,0.000000,4237.948730,4189.487305,4235.384766,4208.461426,4225.641113,4233.589844,4234.743652,4248.589844,4256.153809,4250.769043,4275.384766,4231.153809,4290.384766,4232.436035,0.000000,3.000000,55.000000,,,,0.000000,4.000000,4.000000,4.000000,4.000000,4.000000,4.000000,4.000000,4.000000,4.000000,4.000000,4.000000,4.000000,4.000000,4.000000,100.000000,,,,,,,,,,,,,,,,,,,,,,,,,,,,
1649269239.253842,1649269239.304526,30.000000,0.000000,4230.641113,4179.102539,4232.307617,4194.487305,4227.948730,4233.333496,4237.563965,4246.025879,4257.948730,4254.230957,4267.563965,4229.871582,4277.436035,4224.871582,0.000000,3.000000,55.000000,,,,0.000000,4.000000,4.000000,4.000000,4.000000,4.000000,4.000000,4.000000,4.000000,4.000000,4.000000,4.000000,4.000000,4.000000,4.000000,100.000000,,,,,,,,,,,,,,,,,,,,,,,,,,,,
1649269239.261663,1649269239.312351,31.000000,0.000000,4235.897461,4182.948730,4228.333496,4200.128418,4226.538574,4233.205078,4236.538574,4246.794922,4253.589844,4258.589844,4263.974121,4227.179688,4275.512695,4227.179688,0.000000,3.000000,55.000000,,,,0.000000,4.000000,4.000000,4.000000,4.000000,4.000000,4.000000,4.000000,4.000000,4.000000,4.000000,4.000000,4.000000,4.000000,4.000000,100.000000,,,,,,,,,,,,,,,,,,,,,,,,,,,,
1649269239.269483,1649269239.320077,32.000000,0.000000,4248.717773,4209.743652,4232.436035,4219.487305,4228.077148,4239.615234,4238.077148,4247.436035,4249.615234,4253.717773,4266.025879,4232.692383,4272.307617,4240.128418,0.000000,3.000000,55.000000,,,,0.000000,4.000000,4.000000,4.000000,4.000000,4.000000,4.000000,4.000000,4.000000,4.000000,4.000000,4.000000,4.000000,4.000000,4.000000,100.000000,,,,,,,,,,,,,,,,,8.000000,0.000000,0.169547,-0.664307,0.156860,-0.710876,0.902846,-0.445808,0.063478,-33.347065,-111.406120,-3.588922
1649269239.277304,1649269239.327903,33.000000,0.000000,4247.563965,4224.230957,4234.871582,4217.051270,4222.436035,4245.769043,4243.974121,4245.256348,4250.256348,4244.358887,4253.589844,4234.871582,4247.307617,4238.077148,0.000000,3.000000,55.000000,,,,0.000000,4.000000,4.000000,4.000000,4.000000,4.000000,4.000000,4.000000,4.000000,4.000000,4.000000,4.000000,4.000000,4.000000,4.000000,100.000000,,,,,,,,,,,,,,,,,,,,,,,,,,,,
1649269239.285124,1649269239.335628,34.000000,0.000000,4251.538574,4232.692383,4236.282227,4209.871582,4224.230957,4244.102539,4246.538574,4248.974121,4256.666504,4247.563965,4248.333496,4232.692383,4233.974121,4234.743652,0.000000,3.000000,55.000000,,,,0.000000,4.000000,4.000000,4.000000,4.000000,4.000000,4.000000,4.000000,4.000000,4.000000,4.000000,4.000000,4.000000,4.000000,4.000000,100.000000,,,,,,,,,,,,,,,,,,,,,,,,,,,,
1649269239.292945,1649269239.343454,35.000000,0.000000,4266.922852,4251.538574,4243.589844,4220.000000,4236.538574,4242.692383,4245.000000,4250.384766,4261.666504,4257.307617,4257.692383,4233.461426,4246.794922,4248.589844,0.000000,3.000000,55.000000,,,,0.000000,4.000000,4.000000,4.000000,4.000000,4.000000,4.000000,4.000000,4.000000,4.000000,4.000000,4.000000,4.000000,4.000000,4.000000,100.000000,,,,,,,,,,,,,,,,,,,,,,,,,,,,
1649269239.300766,1649269239.351180,36.000000,0.000000,4266.922852,4255.897461,4245.384766,4221.153809,4236.666504,4246.538574,4244.743652,4247.179688,4261.666504,4260.256348,4253.717773,4234.615234,4248.717773,4254.487305,0.000000,3.000000,55.000000,,,,0.000000,4.000000,4.000000,4.000000,4.000000,4.000000,4.000000,4.000000,4.000000,4.000000,4.000000,4.000000,4.000000,4.000000,4.000000,100.000000,,,,,,,,,,,,,,,,,9.000000,0.000000,0.169832,-0.664307,0.157104,-0.710754,0.906264,-0.432624,0.062013,-34.244297,-111.705193,-2.691691
1649269239.308586,1649269239.359005,37.000000,0.000000,4260.256348,4244.102539,4240.512695,4203.846191,4230.384766,4248.589844,4249.487305,4253.461426,4262.051270,4263.717773,4250.769043,4233.333496,4240.384766,4246.153809,0.000000,3.000000,55.000000,,,,0.000000,4.000000,4.000000,4.000000,4.000000,4.000000,4.000000,4.000000,4.000000,4.000000,4.000000,4.000000,4.000000,4.000000,4.000000,100.000000,,,,,,,,,,,,,,,,,,,,,,,,,,,,
1649269239.316407,1649269239.366731,38.000000,0.000000,4264.743652,4241.025879,4235.256348,4196.153809,4232.948730,4246.025879,4252.563965,4263.461426,4263.846191,4263.717773,4262.307617,4231.922852,4245.384766,4246.025879,0.000000,3.000000,55.000000,,,,0.000000,4.000000,4.000000,4.000000,4.000000,4.000000,4.000000,4.000000,4.000000,4.000000,4.000000,4.000000,4.000000,4.000000,4.000000,100.000000,,,,,,,,,,,,,,,,,,,,,,,,,,,,
1649269239.324227,1649269239.374457,39.000000,0.000000,4259.102539,4238.077148,4235.512695,4202.436035,4234.487305,4244.102539,4249.358887,4263.589844,4261.282227,4255.512695,4260.256348,4231.282227,4247.948730,4242.948730,0.000000,3.000000,55.000000,,,,0.000000,4.000000,4.000000,4.000000,4.000000,4.000000,4.000000,4.000000,4.000000,4.000000,4.000000,4.000000,4.000000,4.000000,4.000000,100.000000,,,,,,,,,,,,,,,,,,,,,,,,,,,,
1649269239.332048,1649269239.382282,40.000000,0.000000,4245.641113,4231.025879,4240.897461,4204.487305,4231.282227,4242.563965,4244.615234,4253.333496,4258.589844,4252.307617,4246.538574,4232.820313,4238.205078,4233.077148,0.000000,3.000000,55.000000,,,,0.000000,4.000000,4.000000,4.000000,4.000000,4.000000,4.000000,4.000000,4.000000,4.000000,4.000000,4.000000,4.000000,4.000000,4.000000,100.000000,,,,,,,,,,,,,,,,,10.000000,0.000000,0.169845,-0.664246,0.157349,-0.710754,0.909194,-0.446296,0.054688,-33.945221,-109.761200,-2.990768
1649269239.339869,1649269239.390108,41.000000,0.000000,4246.410156,4231.025879,4241.025879,4200.384766,4232.436035,4243.205078,4247.307617,4248.974121,4260.128418,4253.974121,4247.436035,4234.358887,4231.666504,4233.974121,0.000000,3.000000,55.000000,,,,0.000000,4.000000,4.000000,4.000000,4.000000,4.000000,4.000000,4.000000,4.000000,4.000000,4.000000,4.000000,4.000000,4.000000,4.000000,100.000000,,,,,,,,,,,,,,,,,,,,,,,,,,,,
1649269239.347689,1649269239.397834,42.000000,0.000000,4249.102539,4234.102539,4236.666504,4201.922852,4232.051270,4245.128418,4251.410156,4255.128418,4258.333496,4249.743652,4250.256348,4231.282227,4234.102539,4235.769043,0.000000,3.000000,55.000000,,,,0.000000,4.000000,4.000000,4.000000,4.000000,4.000000,4.000000,4.000000,4.000000,4.000000,4.000000,4.000000,4.000000,4.000000,4.000000,100.000000,,,,,,,,,,,,,,,,,,,,,,,,,,,,
1649269239.355510,1649269239.405559,43.000000,0.000000,4240.000000,4229.871582,4236.794922,4198.461426,4232.179688,4246.538574,4250.897461,4256.538574,4251.922852,4247.307617,4238.846191,4230.256348,4233.077148,4229.743652,0.000000,3.000000,55.000000,,,,0.000000,4.000000,4.000000,4.000000,4.000000,4.000000,4.000000,4.000000,4.000000,4.000000,4.000000,4.000000,4.000000,4.000000,4.000000,100.000000,,,,,,,,,,,,,,,,,,,,,,,,,,,,
1649269239.363330,1649269239.413385,44.000000,0.000000,4230.256348,4223.461426,4234.743652,4186.666504,4232.948730,4242.692383,4248.717773,4248.974121,4247.179688,4249.358887,4230.000000,4233.846191,4230.897461,4227.820313,0.000000,3.000000,55.000000,,,,0.000000,4.000000,4.000000,4.000000,4.000000,4.000000,4.000000,4.000000,4.000000,4.000000,4.000000,4.000000,4.000000,4.000000,4.000000,100.000000,,,,,,,,,,,,,,,,,11.000000,0.000000,0.170136,-0.664063,0.157532,-0.710815,0.905776,-0.441901,0.067384,-34.244297,-111.256584,-2.243076
1649269239.371151,1649269239.421111,45.000000,0.000000,4234.102539,4226.410156,4229.615234,4189.358887,4225.641113,4235.512695,4246.282227,4245.256348,4248.333496,4245.128418,4235.641113,4234.743652,4232.948730,4231.025879,0.000000,3.000000,55.000000,,,,0.000000,4.000000,4.000000,4.000000,4.000000,4.000000,4.000000,4.000000,4.000000,4.000000,4.000000,4.000000,4.000000,4.000000,4.000000,100.000000,,,,,,,,,,,,,,,,,,,,,,,,,,,,
1649269239.378972,1649269239.428936,46.000000,0.000000,4240.384766,4231.922852,4236.410156,4201.025879,4221.922852,4237.692383,4245.769043,4247.436035,4249.358887,4243.205078,4244.871582,4233.333496,4235.000000,4230.256348,0.000000,3.000000,55.000000,,,,0.000000,4.000000,4.000000,4.000000,4.000000,4.000000,4.000000,4.000000,4.000000,4.000000,4.000000,4.000000,4.000000,4.000000,4.000000,100.000000,,,,,,,,,,,,,,,,,,,,,,,,,,,,
1649269239.386793,1649269239.436662,47.000000,0.000000,4237.179688,4229.871582,4244.487305,4202.179688,4229.871582,4245.384766,4246.794922,4246.025879,4247.051270,4249.102539,4249.102539,4233.846191,4238.461426,4229.871582,0.000000,3.000000,55.000000,,,,0.000000,4.000000,4.000000,4.000000,4.000000,4.000000,4.000000,4.000000,4.000000,4.000000,4.000000,4.000000,4.000000,4.000000,4.000000,100.000000,,,,,,,,,,,,,,,,,,,,,,,,,,,,
1649269239.394613,1649269239.444488,48.000000,0.000000,4231.922852,4223.974121,4241.666504,4198.461426,4235.128418,4244.358887,4246.153809,4244.615234,4246.025879,4248.333496,4244.102539,4233.717773,4241.794922,4232.307617,0.000000,3.000000,55.000000,,,,0.000000,4.000000,4.000000,4.000000,4.000000,4.000000,4.000000,4.000000,4.000000,4.000000,4.000000,4.000000,4.000000,4.000000,4.000000,100.000000,,,,,,,,,,,,,,,,,12.000000,0.000000,0.170329,-0.663940,0.157837,-0.710815,0.897963,-0.451179,0.063966,-33.347065,-111.107040,-1.794461
1649269239.402434,1649269239.452213,49.000000,0.000000,4233.333496,4222.051270,4241.666504,4200.384766,4231.922852,4240.384766,4246.666504,4244.871582,4247.692383,4244.743652,4236.153809,4234.230957,4241.538574,4233.717773,0.000000,3.000000,55.000000,,,,0.000000,4.000000,4.000000,4.000000,4.000000,4.000000,4.000000,4.000000,4.000000,4.000000,4.000000,4.000000,4.000000,4.000000,4.000000,100.000000,,,,,,,,,,,,,,,,,,,,,,,,,,,,
1649269239.410254,1649269239.460039,50.000000,0.000000,4239.358887,4226.410156,4246.666504,4202.436035,4232.948730,4245.512695,4249.871582,4246.410156,4250.256348,4247.563965,4240.128418,4234.487305,4244.358887,4234.743652,0.000000,3.000000,55.000000,,,,0.000000,4.000000,4.000000,4.000000,4.000000,4.000000,4.000000,4.000000,4.000000,4.000000,4.000000,4.000000,4.000000,4.000000,4.000000,100.000000,,,,,,,,,,,,,,,,,,,,,,,,,,,,
1649269239.418075,1649269239.467765,51.000000,0.000000,4245.000000,4230.769043,4248.205078,4203.077148,4230.769043,4248.077148,4251.153809,4249.487305,4252.051270,4249.615234,4246.538574,4232.820313,4247.948730,4235.128418,0.000000,3.000000,55.000000,,,,0.000000,4.000000,4.000000,4.000000,4.000000,4.000000,4.000000,4.000000,4.000000,4.000000,4.000000,4.000000,4.000000,4.000000,4.000000,100.000000,,,,,,,,,,,,,,,,,,,,,,,,,,,,
1649269239.425896,1649269239.475590,52.000000,0.000000,4248.846191,4229.230957,4247.307617,4201.410156,4224.487305,4243.333496,4248.589844,4252.051270,4250.256348,4247.820313,4238.589844,4239.487305,4243.846191,4235.000000,0.000000,3.000000,55.000000,,,,0.000000,4.000000,4.000000,4.000000,4.000000,4.000000,4.000000,4.000000,4.000000,4.000000,4.000000,4.000000,4.000000,4.000000,4.000000,100.000000,,,,,,,,,,,,,,,,,13.000000,0.000000,0.170103,-0.663940,0.158081,-0.710815,0.906264,-0.444343,0.062989,-32.449837,-111.107040,-3.588922
1649269239.433716,1649269239.483316,53.000000,0.000000,4248.461426,4229.102539,4247.436035,4199.358887,4228.333496,4242.563965,4246.922852,4250.897461,4248.461426,4246.538574,4229.102539,4243.974121,4241.025879,4237.307617,0.000000,3.000000,55.000000,,,,0.000000,4.000000,4.000000,4.000000,4.000000,4.000000,4.000000,4.000000,4.000000,4.000000,4.000000,4.000000,4.000000,4.000000,4.000000,100.000000,,,,,,,,,,,,,,,,,,,,,,,,,,,,
1649269239.441537,1649269239.491142,54.000000,0.000000,4250.384766,4232.179688,4247.051270,4205.641113,4238.461426,4245.256348,4247.051270,4249.871582,4253.077148,4248.461426,4233.333496,4236.538574,4245.384766,4244.743652,0.000000,3.000000,55.000000,,,,0.000000,4.000000,4.000000,4.000000,4.000000,4.000000,4.000000,4.000000,4.000000,4.000000,4.000000,4.000000,4.000000,4.000000,4.000000,100.000000,,,,,,,,,,,,,,,,,,,,,,,,,,,,
1649269239.449357,1649269239.498867,55.000000,0.000000,4256.922852,4230.512695,4246.666504,4216.794922,4242.179688,4246.666504,4246.025879,4256.282227,4261.538574,4254.102539,4243.333496,4236.538574,4247.179688,4250.128418,0.000000,3.000000,55.000000,,,,0.000000,4.000000,4.000000,4.000000,4.000000,4.000000,4.000000,4.000000,4.000000,4.000000,4.000000,4.000000,4.000000,4.000000,4.000000,100.000000,,,,,,,,,,,,,,,,,,,,,,,,,,,,
1649269239.457178,1649269239.506693,56.000000,0.000000,4254.487305,4228.077148,4247.563965,4217.820313,4237.436035,4245.641113,4246.025879,4258.077148,4262.948730,4256.666504,4245.000000,4246.666504,4246.025879,4244.230957,0.000000,3.000000,55.000000,,,,0.000000,4.000000,4.000000,4.000000,4.000000,4.000000,4.000000,4.000000,4.000000,4.000000,4.000000,4.000000,4.000000,4.000000,4.000000,100.000000,,,,,,,,,,,,,,,,,14.000000,0.000000,0.170159,-0.663940,0.158020,-0.710815,0.905287,-0.444831,0.069825,-32.748913,-112.303352,-2.990768
1649269239.464999,1649269239.514419,57.000000,0.000000,4252.692383,4229.743652,4247.179688,4205.000000,4231.410156,4245.000000,4247.436035,4250.897461,4257.820313,4251.282227,4242.948730,4245.512695,4246.410156,4237.948730,0.000000,3.000000,55.000000,,,,0.000000,4.000000,4.000000,4.000000,4.000000,4.000000,4.000000,4.000000,4.000000,4.000000,4.000000,4.000000,4.000000,4.000000,4.000000,100.000000,,,,,,,,,,,,,,,,,,,,,,,,,,,,
1649269239.472819,1649269239.522244,58.000000,0.000000,4260.128418,4232.307617,4246.410156,4198.205078,4230.000000,4246.025879,4247.563965,4248.461426,4257.307617,4247.948730,4247.051270,4234.615234,4248.846191,4244.230957,0.000000,3.000000,55.000000,,,,0.000000,4.000000,4.000000,4.000000,4.000000,4.000000,4.000000,4.000000,4.000000,4.000000,4.000000,4.000000,4.000000,4.000000,4.000000,100.000000,,,,,,,,,,,,,,,,,,,,,,,,,,,,
1649269239.480640,1649269239.529970,59.000000,0.000000,4261.538574,4234.358887,4246.794922,4209.487305,4232.948730,4246.794922,4247.436035,4252.820313,4259.358887,4253.717773,4250.512695,4231.153809,4251.538574,4246.153809,0.000000,3.000000,55.000000,,,,0.000000,4.000000,4.000000,4.000000,4.000000,4.000000,4.000000,4.000000,4.000000,4.000000,4.000000,4.000000,4.000000,4.000000,4.000000,100.000000,,,,,,,,,,,,,,,,,,,,,,,,,,,,
1649269239.488460,1649269239.537696,60.000000,0.000000,4251.282227,4235.897461,4246.282227,4215.512695,4232.692383,4245.384766,4247.563965,4252.563965,4260.256348,4260.512695,4246.666504,4232.563965,4251.153809,4237.307617,0.000000,3.000000,55.000000,,,,0.000000,4.000000,4.000000,4.000000,4.000000,4.000000,4.000000,4.000000,4.000000,4.000000,4.000000,4.000000,4.000000,4.000000,4.000000,100.000000,,,,,,,,,,,,,,,,,15.000000,0.000000,0.169938,-0.664063,0.158020,-0.710754,0.913100,-0.443366,0.054200,-34.094757,-110.807968,-1.794461
1649269239.496281,1649269239.545521,61.000000,0.000000,4246.282227,4232.948730,4245.000000,4203.589844,4230.000000,4244.487305,4247.692383,4250.000000,4260.384766,4260.000000,4242.692383,4232.436035,4244.487305,4235.769043,0.000000,3.000000,55.000000,,,,0.000000,4.000000,4.000000,4.000000,4.000000,4.000000,4.000000,4.000000,4.000000,4.000000,4.000000,4.000000,4.000000,4.000000,4.000000,100.000000,,,,,,,,,,,,,,,,,,,,,,,,,,,,
1649269239.504102,1649269239.553347,62.000000,0.000000,4249.102539,4235.384766,4245.897461,4200.128418,4229.230957,4246.153809,4247.563965,4248.846191,4257.820313,4253.589844,4248.333496,4232.820313,4250.641113,4243.589844,0.000000,3.000000,55.000000,,,,0.000000,4.000000,4.000000,4.000000,4.000000,4.000000,4.000000,4.000000,4.000000,4.000000,4.000000,4.000000,4.000000,4.000000,4.000000,100.000000,,,,,,,,,,,,,,,,,,,,,,,,,,,,
1649269239.511922,1649269239.561073,63.000000,0.000000,4251.282227,4243.077148,4247.692383,4210.256348,4235.000000,4245.641113,4248.077148,4246.794922,4257.051270,4250.000000,4251.282227,4235.000000,4263.974121,4242.436035,0.000000,3.000000,55.000000,,,,0.000000,4.000000,4.000000,4.000000,4.000000,4.000000,4.000000,4.000000,4.000000,4.000000,4.000000,4.000000,4.000000,4.000000,4.000000,100.000000,,,,,,,,,,,,,,,,,,,,,,,,,,,,
1649269239.519743,1649269239.568898,64.000000,0.000000,4245.897461,4227.307617,4244.487305,4207.179688,4241.794922,4243.974121,4246.794922,4248.974121,4255.641113,4249.358887,4227.179688,4234.230957,4240.641113,4222.179688,2848.000000,3.000000,55.000000,,,,0.000000,4.000000,4.000000,4.000000,4.000000,4.000000,4.000000,4.000000,4.000000,4.000000,4.000000,4.000000,4.000000,4.000000,4.000000,100.000000,,,,,,,,,,,,,,,,,16.000000,0.000000,0.169995,-0.664063,0.157959,-0.710754,0.913100,-0.448737,0.063478,-33.945221,-111.705193,-1.196307
1649269239.527564,1649269239.576624,65.000000,0.000000,4242.051270,4212.563965,4240.769043,4204.615234,4235.641113,4243.333496,4240.512695,4250.512695,4254.871582,4247.307617,4214.230957,4229.871582,4230.384766,4215.384766,3346.000000,3.000000,55.000000,,,,0.000000,4.000000,4.000000,4.000000,4.000000,4.000000,4.000000,4.000000,4.000000,4.000000,4.000000,4.000000,4.000000,4.000000,4.000000,100.000000,,,,,,,,,,,,,,,,,,,,,,,,,,,,
1649269239.535384,1649269239.584350,66.000000,0.000000,4254.615234,4217.563965,4242.051270,4213.461426,4230.512695,4242.948730,4237.820313,4244.358887,4258.461426,4253.077148,4248.589844,4232.692383,4284.743652,4238.461426,3400.000000,3.000000,55.000000,,,,0.000000,4.000000,4.000000,4.000000,4.000000,4.000000,4.000000,4.000000,4.000000,4.000000,4.000000,4.000000,4.000000,4.000000,4.000000,100.000000,,,,,,,,,,,,,,,,,,,,,,,,,,,,
1649269239.543205,1649269239.592175,67.000000,0.000000,4266.922852,4193.974121,4243.333496,4210.256348,4230.256348,4243.461426,4241.794922,4245.000000,4261.025879,4261.538574,4279.615234,4236.282227,4343.077148,4254.102539,2948.000000,3.000000,55.000000,,,,0.000000,4.000000,4.000000,4.000000,4.000000,4.000000,4.000000,4.000000,4.000000,4.000000,4.000000,4.000000,4.000000,4.000000,4.000000,100.000000,,,,,,,,,,,,,,,,,,,,,,,,,,,,
1649269239.551026,1649269239.599901,68.000000,0.000000,4264.615234,4138.461426,4243.333496,4195.641113,4223.589844,4244.871582,4246.538574,4258.205078,4261.282227,4262.692383,4277.563965,4233.077148,4370.769043,4247.179688,3443.000000,3.000000,55.000000,,,,0.000000,4.000000,4.000000,4.000000,4.000000,4.000000,4.000000,4.000000,4.000000,4.000000,4.000000,4.000000,4.000000,4.000000,4.000000,100.000000,,,,,,,,,,,,,,,,,17.000000,0.000000,0.170176,-0.664001,0.158020,-0.710754,0.913100,-0.451179,0.068849,-33.496605,-112.004272,-2.243076
1649269239.558846,1649269239.607727,69.000000,0.000000,4262.436035,4102.307617,4243.846191,4188.205078,4216.282227,4244.102539,4249.230957,4259.102539,4263.846191,4261.282227,4284.615234,4237.563965,4410.000000,4246.282227,3185.000000,3.000000,55.000000,,,,0.000000,4.000000,4.000000,4.000000,4.000000,4.000000,4.000000,4.000000,4.000000,4.000000,4.000000,4.000000,4.000000,4.000000,4.000000,100.000000,,,,,,,,,,,,,,,,,,,,,,,,,,,,
1649269239.566667,1649269239.615452,70.000000,0.000000,4266.410156,4082.435791,4238.589844,4185.256348,4214.743652,4242.436035,4246.922852,4247.307617,4265.512695,4265.384766,4309.358887,4248.717773,4466.538574,4258.461426,3415.000000,3.000000,55.000000,,,,0.000000,4.000000,4.000000,4.000000,4.000000,4.000000,4.000000,4.000000,4.000000,4.000000,4.000000,4.000000,4.000000,4.000000,4.000000,100.000000,,,,,,,,,,,,,,,,,,,,,,,,,,,,
1649269239.574487,1649269239.623278,71.000000,0.000000,4268.077148,4058.974365,4231.153809,4182.948730,4214.487305,4242.307617,4240.897461,4251.794922,4266.153809,4270.897461,4330.769043,4248.589844,4516.922852,4265.897461,3376.000000,3.000000,55.000000,,,,0.000000,4.000000,4.000000,4.000000,4.000000,4.000000,4.000000,4.000000,4.000000,4.000000,4.000000,4.000000,4.000000,4.000000,4.000000,100.000000,,,,,,,,,,,,,,,,,,,,,,,,,,,,
1649269239.582308,1649269239.631004,72.000000,0.000000,4267.051270,4039.743652,4236.794922,4180.256348,4210.384766,4244.487305,4242.179688,4266.410156,4277.179688,4277.948730,4347.563965,4246.794922,4551.922852,4267.179688,3906.000000,3.000000,55.000000,,,,0.000000,4.000000,4.000000,4.000000,4.000000,4.000000,4.000000,4.000000,4.000000,4.000000,4.000000,4.000000,4.000000,4.000000,4.000000,100.000000,,,,,,,,,,,,,,,,,18.000000,0.000000,0.169699,-0.664124,0.158020,-0.710754,0.899428,-0.432624,0.067384,-33.646145,-111.406120,-2.093538
1649269239.590129,1649269239.638829,73.000000,0.000000,4260.128418,4019.615479,4246.282227,4172.948730,4203.589844,4246.410156,4247.948730,4266.666504,4283.205078,4280.000000,4349.230957,4255.897461,4550.256348,4263.846191,3428.000000,3.000000,55.000000,,,,0.000000,4.000000,4.000000,4.000000,4.000000,4.000000,4.000000,4.000000,4.000000,4.000000,4.000000,4.000000,4.000000,4.000000,4.000000,100.000000,,,,,,,,,,,,,,,,,,,,,,,,,,,,
1649269239.597949,1649269239.646555,74.000000,0.000000,4255.000000,4017.692383,4244.102539,4176.922852,4205.128418,4245.256348,4246.922852,4260.641113,4270.769043,4271.666504,4340.512695,4259.487305,4530.000000,4261.794922,3291.000000,3.000000,55.000000,,,,0.000000,4.000000,4.000000,4.000000,4.000000,4.000000,4.000000,4.000000,4.000000,4.000000,4.000000,4.000000,4.000000,4.000000,4.000000,100.000000,,,,,,,,,,,,,,,,,,,,,,,,,,,,
1649269239.605770,1649269239.654381,75.000000,0.000000,4262.051270,4039.743652,4243.077148,4195.512695,4217.563965,4245.384766,4247.692383,4262.436035,4264.102539,4268.461426,4336.922852,4252.436035,4526.922852,4262.436035,3383.000000,3.000000,55.000000,,,,0.000000,4.000000,4.000000,4.000000,4.000000,4.000000,4.000000,4.000000,4.000000,4.000000,4.000000,4.000000,4.000000,4.000000,4.000000,100.000000,,,,,,,,,,,,,,,,,,,,,,,,,,,,
1649269239.613590,1649269239.662106,76.000000,0.000000,4264.871582,4049.615479,4244.487305,4199.487305,4218.846191,4247.436035,4252.051270,4264.358887,4271.794922,4276.538574,4337.307617,4250.128418,4529.358887,4262.692383,3333.000000,3.000000,55.000000,,,,0.000000,4.000000,4.000000,4.000000,4.000000,4.000000,4.000000,4.000000,4.000000,4.000000,4.000000,4.000000,4.000000,4.000000,4.000000,100.000000,,,,,,,,,,,,,,,,,19.000000,0.000000,0.170125,-0.664124,0.157837,-0.710693,0.895033,-0.455573,0.060548,-34.094757,-110.060272,-2.841230
1649269239.621411,1649269239.669932,77.000000,0.000000,4255.384766,4043.205078,4238.077148,4187.179688,4209.487305,4244.230957,4250.128418,4264.102539,4272.436035,4278.205078,4342.051270,4251.538574,4520.128418,4263.333496,3307.000000,3.000000,55.000000,,,,0.000000,4.000000,4.000000,4.000000,4.000000,4.000000,4.000000,4.000000,4.000000,4.000000,4.000000,4.000000,4.000000,4.000000,4.000000,100.000000,,,,,,,,,,,,,,,,,,,,,,,,,,,,
1649269239.629232,1649269239.677658,78.000000,0.000000,4247.692383,4039.615479,4236.153809,4185.128418,4211.794922,4240.256348,4246.153809,4263.717773,4265.000000,4268.205078,4344.487305,4248.589844,4508.589844,4257.179688,3291.000000,3.000000,55.000000,,,,0.000000,4.000000,4.000000,4.000000,4.000000,4.000000,4.000000,4.000000,4.000000,4.000000,4.000000,4.000000,4.000000,4.000000,4.000000,100.000000,,,,,,,,,,,,,,,,,,,,,,,,,,,,
1649269239.637052,1649269239.685483,79.000000,0.000000,4249.102539,4048.205078,4243.589844,4195.769043,4216.922852,4243.717773,4247.820313,4263.846191,4262.051270,4262.051270,4336.538574,4247.307617,4505.769043,4250.384766,3383.000000,3.000000,55.000000,,,,0.000000,4.000000,4.000000,4.000000,4.000000,4.000000,4.000000,4.000000,4.000000,4.000000,4.000000,4.000000,4.000000,4.000000,4.000000,100.000000,,,,,,,,,,,,,,,,,,,,,,,,,,,,
1649269239.644873,1649269239.693209,80.000000,0.000000,4250.128418,4058.974365,4242.051270,4199.743652,4213.717773,4246.666504,4250.769043,4264.487305,4266.025879,4267.307617,4328.205078,4249.615234,4506.538574,4254.743652,3333.000000,3.000000,55.000000,,,,0.000000,4.000000,4.000000,4.000000,4.000000,4.000000,4.000000,4.000000,4.000000,4.000000,4.000000,4.000000,4.000000,4.000000,4.000000,100.000000,,,,,,,,,,,,,,,,,20.000000,0.000000,0.170073,-0.664246,0.157654,-0.710632,0.904311,-0.447761,0.068360,-34.692913,-111.256584,-1.943999
1649269239.652694,1649269239.701035,81.000000,0.000000,4248.846191,4061.153809,4234.871582,4198.846191,4214.487305,4243.846191,4249.743652,4266.410156,4271.922852,4274.743652,4331.538574,4248.974121,4502.692383,4261.410156,3307.000000,3.000000,55.000000,,,,0.000000,4.000000,4.000000,4.000000,4.000000,4.000000,4.000000,4.000000,4.000000,4.000000,4.000000,4.000000,4.000000,4.000000,4.000000,100.000000,,,,,,,,,,,,,,,,,,,,,,,,,,,,
1649269239.660514,1649269239.708760,82.000000,0.000000,4248.333496,4058.974365,4234.358887,4197.051270,4219.102539,4243.333496,4247.820313,4266.794922,4271.666504,4277.436035,4334.358887,4245.769043,4496.153809,4257.307617,3291.000000,3.000000,55.000000,,,,0.000000,4.000000,4.000000,4.000000,4.000000,4.000000,4.000000,4.000000,4.000000,4.000000,4.000000,4.000000,4.000000,4.000000,4.000000,100.000000,,,,,,,,,,,,,,,,,,,,,,,,,,,,
1649269239.668335,1649269239.716486,83.000000,0.000000,4247.179688,4061.025635,4234.487305,4192.563965,4218.461426,4245.512695,4247.563965,4265.641113,4269.102539,4274.230957,4328.461426,4243.974121,4486.282227,4246.410156,3383.000000,3.000000,55.000000,,,,0.000000,4.000000,4.000000,4.000000,4.000000,4.000000,4.000000,4.000000,4.000000,4.000000,4.000000,4.000000,4.000000,4.000000,4.000000,100.000000,,,,,,,,,,,,,,,,,,,,,,,,,,,,
1649269239.676155,1649269239.724312,84.000000,0.000000,4249.358887,4061.153809,4236.794922,4196.410156,4216.282227,4244.743652,4250.384766,4265.000000,4270.512695,4270.000000,4323.461426,4244.487305,4476.410156,4245.384766,3333.000000,3.000000,55.000000,,,,0.000000,4.000000,4.000000,4.000000,4.000000,4.000000,4.000000,4.000000,4.000000,4.000000,4.000000,4.000000,4.000000,4.000000,4.000000,100.000000,,,,,,,,,,,,,,,,,21.000000,0.000000,0.170037,-0.664429,0.157471,-0.710510,0.907729,-0.456550,0.058595,-32.748913,-111.256584,-0.897231
1649269239.683976,1649269239.732137,85.000000,0.000000,4251.538574,4059.230713,4243.077148,4202.436035,4216.410156,4244.615234,4250.897461,4262.820313,4268.205078,4270.641113,4323.974121,4245.769043,4474.102539,4253.077148,3307.000000,3.000000,55.000000,,,,0.000000,4.000000,4.000000,4.000000,4.000000,4.000000,4.000000,4.000000,4.000000,4.000000,4.000000,4.000000,4.000000,4.000000,4.000000,100.000000,0.976563,75.000000,4.000000,4.000000,4.000000,4.000000,4.000000,4.000000,4.000000,4.000000,4.000000,4.000000,4.000000,4.000000,1.000000,4.000000,,,,,,,,,,,,
1649269239.691797,1649269239.739863,86.000000,0.000000,4250.512695,4066.025635,4244.358887,4198.333496,4215.128418,4246.922852,4251.410156,4260.897461,4262.307617,4275.384766,4325.641113,4247.820313,4475.384766,4254.230957,3291.000000,3.000000,55.000000,,,,0.000000,4.000000,4.000000,4.000000,4.000000,4.000000,4.000000,4.000000,4.000000,4.000000,4.000000,4.000000,4.000000,4.000000,4.000000,100.000000,,,,,,,,,,,,,,,,,,,,,,,,,,,,
1649269239.699617,1649269239.747589,87.000000,0.000000,4255.000000,4073.974365,4245.000000,4196.794922,4219.358887,4246.922852,4255.897461,4262.563965,4264.487305,4277.436035,4330.512695,4250.769043,4476.538574,4255.769043,3383.000000,3.000000,55.000000,,,,0.000000,4.000000,4.000000,4.000000,4.000000,4.000000,4.000000,4.000000,4.000000,4.000000,4.000000,4.000000,4.000000,4.000000,4.000000,100.000000,,,,,,,,,,,,,,,,,,,,,,,,,,,,
1649269239.707438,1649269239.755414,88.000000,0.000000,4261.410156,4076.281982,4248.717773,4203.589844,4228.846191,4245.128418,4257.179688,4264.615234,4266.538574,4275.641113,4331.922852,4250.000000,4475.128418,4262.692383,3333.000000,3.000000,55.000000,,,,0.000000,4.000000,4.000000,4.000000,4.000000,4.000000,4.000000,4.000000,4.000000,4.000000,4.000000,4.000000,4.000000,4.000000,4.000000,100.000000,,,,,,,,,,,,,,,,,22.000000,0.000000,0.170438,-0.664551,0.157349,-0.710327,0.908217,-0.460456,0.061524,-32.898453,-111.107040,-1.794461
1649269239.715258,1649269239.763140,89.000000,0.000000,4259.615234,4076.923096,4249.871582,4204.743652,4228.461426,4244.871582,4251.410156,4263.846191,4264.358887,4278.846191,4326.794922,4248.974121,4469.743652,4260.769043,3307.000000,3.000000,55.000000,,,,0.000000,4.000000,4.000000,4.000000,4.000000,4.000000,4.000000,4.000000,4.000000,4.000000,4.000000,4.000000,4.000000,4.000000,4.000000,100.000000,,,,,,,,,,,,,,,,,,,,,,,,,,,,
1649269239.723079,1649269239.770966,90.000000,0.000000,4257.179688,4078.589844,4246.922852,4201.794922,4219.230957,4245.128418,4248.461426,4263.589844,4266.153809,4279.871582,4325.897461,4252.692383,4463.717773,4256.794922,3291.000000,3.000000,55.000000,,,,0.000000,4.000000,4.000000,4.000000,4.000000,4.000000,4.000000,4.000000,4.000000,4.000000,4.000000,4.000000,4.000000,4.000000,4.000000,100.000000,,,,,,,,,,,,,,,,,,,,,,,,,,,,
1649269239.730900,1649269239.778691,91.000000,0.000000,4259.102539,4080.128174,4247.051270,4200.641113,4213.589844,4245.000000,4250.128418,4263.846191,4264.230957,4271.410156,4327.436035,4252.692383,4460.769043,4260.641113,3383.000000,3.000000,55.000000,,,,0.000000,4.000000,4.000000,4.000000,4.000000,4.000000,4.000000,4.000000,4.000000,4.000000,4.000000,4.000000,4.000000,4.000000,4.000000,100.000000,,,,,,,,,,,,,,,,,,,,,,,,,,,,
1649269239.738720,1649269239.786517,92.000000,0.000000,4260.000000,4079.358887,4246.666504,4201.025879,4219.871582,4245.128418,4248.333496,4261.410156,4262.051270,4271.153809,4325.256348,4249.358887,4460.256348,4264.230957,3333.000000,3.000000,55.000000,,,,0.000000,4.000000,4.000000,4.000000,4.000000,4.000000,4.000000,4.000000,4.000000,4.000000,4.000000,4.000000,4.000000,4.000000,4.000000,100.000000,,,,,,,,,,,,,,,,,23.000000,0.000000,0.170652,-0.664612,0.157410,-0.710205,0.894545,-0.458991,0.048829,-33.347065,-112.901505,-1.794461
1649269239.746541,1649269239.794243,93.000000,0.000000,4258.974121,4080.000000,4246.666504,4204.230957,4228.205078,4244.743652,4245.769043,4259.358887,4263.077148,4277.563965,4321.025879,4254.487305,4458.461426,4261.666504,3307.000000,3.000000,55.000000,,,,0.000000,4.000000,4.000000,4.000000,4.000000,4.000000,4.000000,4.000000,4.000000,4.000000,4.000000,4.000000,4.000000,4.000000,4.000000,100.000000,,,,,,,,,,,,,,,,,,,,,,,,,,,,
1649269239.754362,1649269239.802068,94.000000,0.000000,4263.461426,4092.564209,4255.769043,4214.230957,4232.051270,4246.666504,4247.820313,4262.820313,4264.871582,4280.384766,4323.461426,4263.461426,4460.897461,4264.102539,3291.000000,3.000000,55.000000,,,,0.000000,4.000000,4.000000,4.000000,4.000000,4.000000,4.000000,4.000000,4.000000,4.000000,4.000000,4.000000,4.000000,4.000000,4.000000,100.000000,,,,,,,,,,,,,,,,,,,,,,,,,,,,
1649269239.762182,1649269239.809794,95.000000,0.000000,4271.282227,4107.563965,4264.358887,4226.153809,4238.846191,4250.128418,4248.589844,4265.897461,4268.974121,4282.692383,4333.461426,4265.769043,4463.205078,4270.641113,3383.000000,3.000000,55.000000,,,,0.000000,4.000000,4.000000,4.000000,4.000000,4.000000,4.000000,4.000000,4.000000,4.000000,4.000000,4.000000,4.000000,4.000000,4.000000,100.000000,,,,,,,,,,,,,,,,,,,,,,,,,,,,
1649269239.770003,1649269239.817620,96.000000,0.000000,4276.282227,4107.307617,4262.307617,4226.538574,4245.897461,4249.871582,4247.563965,4262.563965,4270.128418,4282.179688,4336.794922,4263.974121,4461.282227,4273.846191,3333.000000,3.000000,55.000000,,,,0.000000,4.000000,4.000000,4.000000,4.000000,4.000000,4.000000,4.000000,4.000000,4.000000,4.000000,4.000000,4.000000,4.000000,4.000000,100.000000,,,,,,,,,,,,,,,,,24.000000,0.000000,0.170809,-0.664673,0.157532,-0.710083,0.911635,-0.443366,0.056153,-33.945221,-112.303352,-2.243076
1649269239.777823,1649269239.825345,97.000000,0.000000,4276.410156,4104.487305,4260.128418,4224.871582,4245.897461,4248.589844,4246.794922,4259.743652,4264.871582,4276.538574,4328.077148,4263.205078,4458.974121,4273.077148,3307.000000,3.000000,55.000000,,,,0.000000,4.000000,4.000000,4.000000,4.000000,4.000000,4.000000,4.000000,4.000000,4.000000,4.000000,4.000000,4.000000,4.000000,4.000000,100.000000,,,,,,,,,,,,,,,,,,,,,,,,,,,,
1649269239.785644,1649269239.833171,98.000000,0.000000,4275.641113,4112.692383,4263.846191,4226.794922,4242.563965,4249.615234,4247.307617,4261.922852,4266.410156,4276.794922,4323.333496,4264.358887,4458.717773,4273.205078,3291.000000,3.000000,55.000000,,,,0.000000,4.000000,4.000000,4.000000,4.000000,4.000000,4.000000,4.000000,4.000000,4.000000,4.000000,4.000000,4.000000,4.000000,4.000000,100.000000,,,,,,,,,,,,,,,,,,,,,,,,,,,,
1649269239.793465,1649269239.840897,99.000000,0.000000,4275.384766,4116.538574,4260.769043,4221.794922,4238.974121,4248.974121,4247.307617,4262.563965,4270.384766,4282.051270,4327.692383,4264.743652,4458.461426,4275.641113,3383.000000,3.000000,55.000000,,,,0.000000,4.000000,4.000000,4.000000,4.000000,4.000000,4.000000,4.000000,4.000000,4.000000,4.000000,4.000000,4.000000,4.000000,4.000000,100.000000,,,,,,,,,,,,,,,,,,,,,,,,,,,,
1649269239.801285,1649269239.848722,100.000000,0.000000,4272.948730,4115.641113,4253.974121,4214.871582,4232.948730,4248.205078,4246.922852,4259.102539,4266.025879,4279.615234,4327.307617,4261.538574,4456.922852,4276.538574,3333.000000,3.000000,55.000000,,,,0.000000,4.000000,4.000000,4.000000,4.000000,4.000000,4.000000,4.000000,4.000000,4.000000,4.000000,4.000000,4.000000,4.000000,4.000000,100.000000,,,,,,,,,,,,,,,,,25.000000,0.000000,0.170826,-0.664734,0.157532,-0.710022,0.908705,-0.460945,0.064942,-33.047989,-111.256584,-3.439384
1649269239.809106,1649269239.856448,101.000000,0.000000,4274.230957,4122.692383,4258.333496,4217.820313,4236.410156,4250.256348,4247.307617,4258.333496,4267.436035,4278.461426,4325.512695,4262.436035,4459.102539,4277.820313,3307.000000,3.000000,55.000000,,,,0.000000,4.000000,4.000000,4.000000,4.000000,4.000000,4.000000,4.000000,4.000000,4.000000,4.000000,4.000000,4.000000,4.000000,4.000000,100.000000,,,,,,,,,,,,,,,,,,,,,,,,,,,,
1649269239.816927,1649269239.864274,102.000000,0.000000,4279.615234,4128.717773,4260.000000,4221.666504,4247.948730,4251.025879,4247.307617,4261.794922,4277.436035,4282.051270,4329.871582,4263.974121,4458.846191,4280.897461,3291.000000,3.000000,55.000000,,,,0.000000,4.000000,4.000000,4.000000,4.000000,4.000000,4.000000,4.000000,4.000000,4.000000,4.000000,4.000000,4.000000,4.000000,4.000000,100.000000,,,,,,,,,,,,,,,,,,,,,,,,,,,,
1649269239.824747,1649269239.871999,103.000000,0.000000,4275.769043,4125.384766,4251.666504,4218.974121,4246.025879,4249.102539,4246.538574,4264.102539,4274.871582,4281.922852,4324.615234,4255.512695,4449.487305,4276.666504,3383.000000,3.000000,55.000000,,,,0.000000,4.000000,4.000000,4.000000,4.000000,4.000000,4.000000,4.000000,4.000000,4.000000,4.000000,4.000000,4.000000,4.000000,4.000000,100.000000,,,,,,,,,,,,,,,,,,,,,,,,,,,,
1649269239.832568,1649269239.879825,104.000000,0.000000,4264.743652,4121.153809,4249.358887,4216.538574,4234.871582,4248.974121,4247.436035,4260.512695,4263.205078,4278.077148,4311.410156,4247.436035,4434.487305,4265.769043,3333.000000,3.000000,55.000000,,,,0.000000,4.000000,4.000000,4.000000,4.000000,4.000000,4.000000,4.000000,4.000000,4.000000,4.000000,4.000000,4.000000,4.000000,4.000000,100.000000,,,,,,,,,,,,,,,,,26.000000,0.000000,0.170599,-0.664734,0.157227,-0.710144,0.908705,-0.459968,0.064454,-34.543373,-110.807968,-2.093538
1649269239.840388,1649269239.887551,105.000000,0.000000,4263.974121,4124.358887,4261.153809,4218.717773,4232.948730,4249.743652,4249.102539,4258.205078,4262.436035,4275.512695,4312.051270,4250.000000,4434.615234,4267.563965,3307.000000,3.000000,55.000000,,,,0.000000,4.000000,4.000000,4.000000,4.000000,4.000000,4.000000,4.000000,4.000000,4.000000,4.000000,4.000000,4.000000,4.000000,4.000000,100.000000,,,,,,,,,,,,,,,,,,,,,,,,,,,,
1649269239.848209,1649269239.895276,106.000000,0.000000,4265.512695,4123.077148,4267.051270,4220.000000,4235.897461,4248.717773,4250.256348,4260.128418,4267.692383,4279.230957,4312.563965,4252.948730,4442.307617,4275.897461,3291.000000,3.000000,55.000000,,,,0.000000,4.000000,4.000000,4.000000,4.000000,4.000000,4.000000,4.000000,4.000000,4.000000,4.000000,4.000000,4.000000,4.000000,4.000000,100.000000,,,,,,,,,,,,,,,,,,,,,,,,,,,,
1649269239.856030,1649269239.903102,107.000000,0.000000,4258.974121,4113.974121,4255.897461,4215.641113,4231.794922,4246.025879,4249.487305,4255.512695,4263.205078,4276.153809,4297.563965,4249.487305,4430.769043,4265.897461,3383.000000,3.000000,55.000000,,,,0.000000,4.000000,4.000000,4.000000,4.000000,4.000000,4.000000,4.000000,4.000000,4.000000,4.000000,4.000000,4.000000,4.000000,4.000000,100.000000,,,,,,,,,,,,,,,,,,,,,,,,,,,,
1649269239.863850,1649269239.910828,108.000000,0.000000,4264.358887,4123.846191,4248.974121,4218.846191,4231.794922,4245.000000,4248.717773,4249.871582,4258.333496,4267.051270,4294.358887,4249.102539,4424.615234,4264.102539,3333.000000,3.000000,55.000000,,,,0.000000,4.000000,4.000000,4.000000,4.000000,4.000000,4.000000,4.000000,4.000000,4.000000,4.000000,4.000000,4.000000,4.000000,4.000000,100.000000,,,,,,,,,,,,,,,,,27.000000,0.000000,0.169951,-0.664856,0.156860,-0.710266,0.896986,-0.448249,0.051270,-34.692913,-111.256584,-2.691691
1649269239.871671,1649269239.918653,109.000000,0.000000,4258.333496,4118.717773,4252.948730,4211.025879,4233.974121,4249.102539,4257.436035,4258.717773,4262.307617,4270.384766,4299.615234,4252.051270,4412.948730,4262.436035,3307.000000,3.000000,55.000000,,,,0.000000,4.000000,4.000000,4.000000,4.000000,4.000000,4.000000,4.000000,4.000000,4.000000,4.000000,4.000000,4.000000,4.000000,4.000000,100.000000,,,,,,,,,,,,,,,,,,,,,,,,,,,,
1649269239.879491,1649269239.926379,110.000000,0.000000,4229.743652,4086.794922,4249.102539,4189.487305,4227.948730,4251.282227,4265.384766,4269.102539,4263.589844,4274.102539,4285.897461,4249.743652,4376.282227,4233.205078,3291.000000,3.000000,55.000000,,,,0.000000,4.000000,4.000000,4.000000,4.000000,4.000000,4.000000,4.000000,4.000000,4.000000,4.000000,4.000000,4.000000,4.000000,4.000000,100.000000,,,,,,,,,,,,,,,,,,,,,,,,,,,,
1649269239.887312,1649269239.934205,111.000000,0.000000,4233.333496,4119.358887,4245.256348,4204.615234,4231.410156,4247.563965,4256.410156,4262.307617,4260.384766,4265.256348,4277.051270,4247.307617,4362.051270,4232.692383,3383.000000,3.000000,55.000000,,,,0.000000,4.000000,4.000000,4.000000,4.000000,4.000000,4.000000,4.000000,4.000000,4.000000,4.000000,4.000000,4.000000,4.000000,4.000000,100.000000,,,,,,,,,,,,,,,,,,,,,,,,,,,,
1649269239.895133,1649269239.941930,112.000000,0.000000,4266.410156,4208.461426,4257.307617,4245.128418,4248.461426,4247.051270,4247.436035,4255.769043,4260.512695,4260.641113,4276.538574,4250.000000,4355.256348,4270.384766,3333.000000,3.000000,55.000000,,,,0.000000,4.000000,4.000000,4.000000,4.000000,4.000000,4.000000,4.000000,4.000000,4.000000,4.000000,4.000000,4.000000,4.000000,4.000000,100.000000,,,,,,,,,,,,,,,,,28.000000,0.000000,0.169924,-0.664978,0.156372,-0.710266,0.912123,-0.448737,0.064454,-33.646145,-111.107040,-4.336614
1649269239.902953,1649269239.949756,113.000000,0.000000,4269.871582,4250.000000,4260.897461,4252.692383,4252.051270,4249.871582,4251.538574,4255.897461,4255.128418,4260.128418,4250.769043,4250.000000,4289.871582,4270.641113,3307.000000,3.000000,55.000000,,,,0.000000,4.000000,4.000000,4.000000,4.000000,4.000000,4.000000,4.000000,4.000000,4.000000,4.000000,4.000000,4.000000,4.000000,4.000000,100.000000,,,,,,,,,,,,,,,,,,,,,,,,,,,,
1649269239.910774,1649269239.957482,114.000000,0.000000,4257.179688,4269.230957,4252.563965,4251.025879,4247.820313,4248.589844,4253.077148,4250.128418,4246.538574,4252.307617,4227.692383,4246.282227,4222.051270,4251.922852,3291.000000,3.000000,55.000000,,,,0.000000,4.000000,4.000000,4.000000,4.000000,4.000000,4.000000,4.000000,4.000000,4.000000,4.000000,4.000000,4.000000,4.000000,4.000000,100.000000,,,,,,,,,,,,,,,,,,,,,,,,,,,,
1649269239.918594,1649269239.965307,115.000000,0.000000,4267.820313,4323.717773,4257.563965,4275.897461,4256.922852,4246.410156,4249.743652,4245.128418,4246.025879,4247.692383,4227.051270,4245.128418,4207.051270,4268.077148,3383.000000,3.000000,55.000000,,,,0.000000,4.000000,4.000000,4.000000,4.000000,4.000000,4.000000,4.000000,4.000000,4.000000,4.000000,4.000000,4.000000,4.000000,4.000000,100.000000,,,,,,,,,,,,,,,,,,,,,,,,,,,,
1649269239.926415,1649269239.973033,116.000000,0.000000,4270.769043,4356.410156,4258.846191,4285.256348,4267.563965,4248.077148,4249.743652,4245.384766,4246.025879,4249.230957,4211.922852,4237.692383,4178.333496,4271.922852,3333.000000,3.000000,55.000000,,,,0.000000,4.000000,4.000000,4.000000,4.000000,4.000000,4.000000,4.000000,4.000000,4.000000,4.000000,4.000000,4.000000,4.000000,4.000000,100.000000,,,,,,,,,,,,,,,,,29.000000,0.000000,0.169813,-0.665100,0.156250,-0.710205,0.908217,-0.441901,0.066407,-33.945221,-111.705193,-2.691691
1649269239.934236,1649269239.980859,117.000000,0.000000,4252.436035,4345.512695,4246.153809,4268.846191,4264.615234,4248.077148,4248.077148,4245.128418,4242.307617,4245.769043,4189.487305,4223.846191,4139.230957,4246.794922,3307.000000,3.000000,55.000000,,,,0.000000,4.000000,4.000000,4.000000,4.000000,4.000000,4.000000,4.000000,4.000000,4.000000,4.000000,4.000000,4.000000,4.000000,4.000000,100.000000,,,,,,,,,,,,,,,,,,,,,,,,,,,,
1649269239.942057,1649269239.988584,118.000000,0.000000,4248.846191,4337.051270,4244.743652,4263.205078,4259.358887,4247.307617,4244.615234,4244.743652,4245.000000,4246.922852,4194.358887,4223.846191,4147.692383,4245.897461,3291.000000,3.000000,55.000000,,,,0.000000,4.000000,4.000000,4.000000,4.000000,4.000000,4.000000,4.000000,4.000000,4.000000,4.000000,4.000000,4.000000,4.000000,4.000000,100.000000,,,,,,,,,,,,,,,,,,,,,,,,,,,,
1649269239.949877,1649269239.996410,119.000000,0.000000,4261.025879,4337.692383,4249.615234,4272.563965,4262.436035,4245.897461,4244.487305,4248.333496,4249.230957,4250.512695,4207.820313,4233.205078,4168.717773,4260.512695,3383.000000,3.000000,55.000000,,,,0.000000,4.000000,4.000000,4.000000,4.000000,4.000000,4.000000,4.000000,4.000000,4.000000,4.000000,4.000000,4.000000,4.000000,4.000000,100.000000,,,,,,,,,,,,,,,,,,,,,,,,,,,,
1649269239.957698,1649269240.004136,120.000000,0.000000,4266.410156,4338.077148,4254.102539,4281.922852,4268.974121,4247.051270,4250.256348,4254.230957,4248.589844,4250.769043,4210.384766,4237.692383,4170.000000,4261.922852,3333.000000,3.000000,55.000000,,,,0.000000,4.000000,4.000000,4.000000,4.000000,4.000000,4.000000,4.000000,4.000000,4.000000,4.000000,4.000000,4.000000,4.000000,4.000000,100.000000,,,,,,,,,,,,,,,,,30.000000,0.000000,0.169996,-0.665039,0.156311,-0.710205,0.896498,-0.446784,0.075685,-32.449837,-111.406120,-2.093538
1649269239.965518,1649269240.011961,121.000000,0.000000,4262.436035,4332.307617,4260.000000,4278.589844,4268.461426,4255.128418,4260.641113,4261.410156,4254.358887,4254.615234,4214.743652,4237.307617,4167.307617,4254.102539,3307.000000,3.000000,55.000000,,,,0.000000,4.000000,4.000000,4.000000,4.000000,4.000000,4.000000,4.000000,4.000000,4.000000,4.000000,4.000000,4.000000,4.000000,4.000000,100.000000,,,,,,,,,,,,,,,,,,,,,,,,,,,,
1649269239.973339,1649269240.019687,122.000000,0.000000,4261.282227,4323.461426,4254.615234,4265.897461,4262.051270,4257.820313,4261.538574,4264.487305,4260.000000,4260.256348,4216.282227,4235.384766,4171.153809,4250.256348,3291.000000,3.000000,55.000000,,,,0.000000,4.000000,4.000000,4.000000,4.000000,4.000000,4.000000,4.000000,4.000000,4.000000,4.000000,4.000000,4.000000,4.000000,4.000000,100.000000,,,,,,,,,,,,,,,,,,,,,,,,,,,,
1649269239.981160,1649269240.027513,123.000000,0.000000,4264.743652,4325.897461,4252.820313,4265.641113,4259.743652,4249.743652,4253.205078,4261.282227,4253.589844,4259.487305,4207.179688,4234.743652,4172.179688,4257.436035,3383.000000,3.000000,55.000000,,,,0.000000,4.000000,4.000000,4.000000,4.000000,4.000000,4.000000,4.000000,4.000000,4.000000,4.000000,4.000000,4.000000,4.000000,4.000000,100.000000,,,,,,,,,,,,,,,,,,,,,,,,,,,,
1649269239.988980,1649269240.035238,124.000000,0.000000,4266.922852,4331.794922,4261.922852,4276.666504,4263.589844,4245.128418,4250.512695,4263.589844,4246.922852,4252.563965,4199.871582,4237.692383,4170.384766,4264.358887,3333.000000,3.000000,55.000000,,,,0.000000,4.000000,4.000000,4.000000,4.000000,4.000000,4.000000,4.000000,4.000000,4.000000,4.000000,4.000000,4.000000,4.000000,4.000000,100.000000,,,,,,,,,,,,,,,,,31.000000,0.000000,0.169685,-0.665039,0.156372,-0.710266,0.903334,-0.442878,0.055665,-33.347065,-111.107040,-3.887999
1649269239.996801,1649269240.043064,125.000000,0.000000,4262.179688,4318.461426,4256.153809,4269.743652,4263.077148,4246.282227,4251.666504,4264.102539,4249.102539,4247.820313,4201.282227,4235.384766,4168.589844,4254.743652,3307.000000,3.000000,55.000000,,,,0.000000,4.000000,4.000000,4.000000,4.000000,4.000000,4.000000,4.000000,4.000000,4.000000,4.000000,4.000000,4.000000,4.000000,4.000000,100.000000,,,,,,,,,,,,,,,,,,,,,,,,,,,,
1649269240.004621,1649269240.050790,126.000000,0.000000,4256.922852,4308.461426,4244.230957,4257.436035,4261.794922,4245.897461,4249.743652,4252.051270,4247.948730,4246.025879,4202.307617,4230.000000,4165.641113,4241.153809,3291.000000,3.000000,55.000000,,,,0.000000,4.000000,4.000000,4.000000,4.000000,4.000000,4.000000,4.000000,4.000000,4.000000,4.000000,4.000000,4.000000,4.000000,4.000000,100.000000,,,,,,,,,,,,,,,,,,,,,,,,,,,,
1649269240.012442,1649269240.058515,127.000000,0.000000,4262.436035,4321.666504,4248.333496,4268.974121,4264.358887,4246.922852,4250.256348,4243.846191,4243.846191,4245.769043,4199.615234,4230.897461,4170.897461,4249.102539,53.000000,3.000000,55.000000,,,,0.000000,4.000000,4.000000,4.000000,4.000000,4.000000,4.000000,4.000000,4.000000,4.000000,4.000000,4.000000,4.000000,4.000000,4.000000,100.000000,,,,,,,,,,,,,,,,,,,,,,,,,,,,
1649269240.020263,1649269240.066341,0.000000,0.000000,4266.153809,4325.897461,4251.025879,4279.102539,4265.256348,4249.102539,4251.666504,4246.153809,4247.307617,4249.743652,4198.974121,4226.538574,4177.820313,4257.563965,2848.000000,3.000000,55.000000,,,,0.000000,4.000000,4.000000,4.000000,4.000000,4.000000,4.000000,4.000000,4.000000,4.000000,4.000000,4.000000,4.000000,4.000000,4.000000,100.000000,,,,,,,,,,,,,,,,,0.000000,0.000000,0.169628,-0.665039,0.156433,-0.710266,0.899916,-0.445808,0.077638,-34.543373,-109.611656,-2.093538
1649269240.028083,1649269240.074067,1.000000,0.000000,4261.794922,4314.102539,4245.897461,4273.846191,4267.179688,4247.307617,4250.000000,4245.128418,4248.974121,4251.538574,4197.692383,4219.102539,4172.563965,4246.282227,3340.000000,3.000000,55.000000,,,,0.000000,4.000000,4.000000,4.000000,4.000000,4.000000,4.000000,4.000000,4.000000,4.000000,4.000000,4.000000,4.000000,4.000000,4.000000,100.000000,,,,,,,,,,,,,,,,,,,,,,,,,,,,
1649269240.035904,1649269240.081892,2.000000,0.000000,4262.051270,4314.230957,4247.436035,4274.230957,4270.256348,4245.897461,4247.179688,4241.666504,4245.641113,4248.974121,4198.974121,4226.025879,4172.563965,4241.410156,3394.000000,3.000000,55.000000,,,,0.000000,4.000000,4.000000,4.000000,4.000000,4.000000,4.000000,4.000000,4.000000,4.000000,4.000000,4.000000,4.000000,4.000000,4.000000,100.000000,,,,,,,,,,,,,,,,,,,,,,,,,,,,
1649269240.043724,1649269240.089718,3.000000,0.000000,4264.358887,4320.384766,4250.256348,4279.358887,4268.461426,4246.538574,4249.487305,4244.615234,4245.641113,4247.179688,4203.846191,4235.897461,4185.128418,4249.102539,2942.000000,3.000000,55.000000,,,,0.000000,4.000000,4.000000,4.000000,4.000000,4.000000,4.000000,4.000000,4.000000,4.000000,4.000000,4.000000,4.000000,4.000000,4.000000,100.000000,,,,,,,,,,,,,,,,,,,,,,,,,,,,
1649269240.051545,1649269240.097444,4.000000,0.000000,4261.794922,4320.769043,4248.461426,4279.358887,4265.384766,4247.820313,4254.871582,4247.179688,4249.743652,4249.102539,4200.897461,4234.487305,4185.384766,4249.615234,3439.000000,3.000000,55.000000,,,,0.000000,4.000000,4.000000,4.000000,4.000000,4.000000,4.000000,4.000000,4.000000,4.000000,4.000000,4.000000,4.000000,4.000000,4.000000,100.000000,,,,,,,,,,,,,,,,,1.000000,0.000000,0.169994,-0.664917,0.156555,-0.710266,0.910170,-0.438483,0.060060,-34.543373,-111.107040,-2.542153
1649269240.059366,1649269240.105269,5.000000,0.000000,4260.000000,4318.974121,4245.769043,4274.743652,4266.025879,4247.563965,4252.948730,4245.384766,4248.077148,4246.922852,4196.666504,4230.000000,4177.948730,4243.717773,3185.000000,3.000000,55.000000,,,,0.000000,4.000000,4.000000,4.000000,4.000000,4.000000,4.000000,4.000000,4.000000,4.000000,4.000000,4.000000,4.000000,4.000000,4.000000,100.000000,,,,,,,,,,,,,,,,,,,,,,,,,,,,
1649269240.067186,1649269240.112995,6.000000,0.000000,4262.307617,4315.897461,4248.846191,4272.820313,4265.512695,4247.051270,4249.615234,4251.153809,4246.410156,4245.897461,4206.922852,4229.615234,4191.025879,4251.666504,3415.000000,3.000000,55.000000,,,,0.000000,4.000000,4.000000,4.000000,4.000000,4.000000,4.000000,4.000000,4.000000,4.000000,4.000000,4.000000,4.000000,4.000000,4.000000,100.000000,,,,,,,,,,,,,,,,,,,,,,,,,,,,
1649269240.075007,1649269240.120721,7.000000,0.000000,4263.717773,4319.358887,4259.102539,4277.436035,4264.230957,4248.333496,4255.256348,4264.615234,4256.794922,4256.538574,4221.666504,4237.948730,4209.743652,4267.436035,3375.000000,3.000000,55.000000,,,,0.000000,4.000000,4.000000,4.000000,4.000000,4.000000,4.000000,4.000000,4.000000,4.000000,4.000000,4.000000,4.000000,4.000000,4.000000,100.000000,,,,,,,,,,,,,,,,,,,,,,,,,,,,
1649269240.082828,1649269240.128546,8.000000,0.000000,4262.307617,4329.743652,4261.410156,4280.769043,4264.358887,4248.333496,4256.025879,4264.743652,4260.256348,4262.692383,4220.256348,4245.641113,4213.205078,4269.487305,3908.000000,3.000000,55.000000,,,,0.000000,4.000000,4.000000,4.000000,4.000000,4.000000,4.000000,4.000000,4.000000,4.000000,4.000000,4.000000,4.000000,4.000000,4.000000,100.000000,,,,,,,,,,,,,,,,,2.000000,0.000000,0.170150,-0.664856,0.156921,-0.710205,0.903334,-0.443366,0.060548,-34.543373,-111.406120,-2.542153
1649269240.090648,1649269240.136272,9.000000,0.000000,4265.641113,4331.153809,4254.615234,4279.487305,4263.846191,4245.897461,4246.153809,4247.820313,4249.102539,4252.692383,4213.077148,4239.615234,4211.922852,4264.230957,3426.000000,3.000000,55.000000,,,,0.000000,4.000000,4.000000,4.000000,4.000000,4.000000,4.000000,4.000000,4.000000,4.000000,4.000000,4.000000,4.000000,4.000000,4.000000,100.000000,,,,,,,,,,,,,,,,,,,,,,,,,,,,
1649269240.098469,1649269240.144098,10.000000,0.000000,4274.358887,4327.820313,4256.666504,4280.769043,4264.487305,4245.000000,4243.717773,4244.615234,4245.897461,4245.256348,4214.102539,4238.461426,4214.230957,4269.230957,3300.000000,3.000000,55.000000,,,,0.000000,4.000000,4.000000,4.000000,4.000000,4.000000,4.000000,4.000000,4.000000,4.000000,4.000000,4.000000,4.000000,4.000000,4.000000,100.000000,,,,,,,,,,,,,,,,,,,,,,,,,,,,
1649269240.106290,1649269240.151823,11.000000,0.000000,4277.692383,4330.512695,4263.205078,4281.922852,4261.025879,4245.769043,4248.333496,4251.666504,4252.948730,4251.538574,4219.230957,4247.948730,4222.820313,4278.333496,3378.000000,3.000000,55.000000,,,,0.000000,4.000000,4.000000,4.000000,4.000000,4.000000,4.000000,4.000000,4.000000,4.000000,4.000000,4.000000,4.000000,4.000000,4.000000,100.000000,,,,,,,,,,,,,,,,,,,,,,,,,,,,
1649269240.114110,1649269240.159649,12.000000,0.000000,4281.025879,4339.487305,4264.871582,4287.179688,4262.563965,4247.179688,4246.025879,4243.205078,4251.538574,4254.358887,4225.128418,4252.820313,4232.692383,4281.153809,3336.000000,3.000000,55.000000,,,,0.000000,4.000000,4.000000,4.000000,4.000000,4.000000,4.000000,4.000000,4.000000,4.000000,4.000000,4.000000,4.000000,4.000000,4.000000,100.000000,,,,,,,,,,,,,,,,,3.000000,0.000000,0.170329,-0.664673,0.157227,-0.710266,0.893080,-0.454109,0.082521,-34.692913,-111.705193,-3.738460
1649269240.121931,1649269240.167375,13.000000,0.000000,4288.461426,4345.000000,4262.307617,4295.769043,4272.948730,4247.051270,4245.128418,4232.307617,4249.487305,4249.743652,4227.948730,4249.358887,4233.333496,4282.563965,3306.000000,3.000000,55.000000,,,,0.000000,4.000000,4.000000,4.000000,4.000000,4.000000,4.000000,4.000000,4.000000,4.000000,4.000000,4.000000,4.000000,4.000000,4.000000,100.000000,,,,,,,,,,,,,,,,,,,,,,,,,,,,
1649269240.129751,1649269240.175200,14.000000,0.000000,4286.025879,4338.846191,4253.205078,4288.717773,4271.922852,4242.436035,4241.410156,4230.769043,4246.538574,4246.153809,4222.307617,4241.025879,4227.051270,4281.794922,3300.000000,3.000000,55.000000,,,,0.000000,4.000000,4.000000,4.000000,4.000000,4.000000,4.000000,4.000000,4.000000,4.000000,4.000000,4.000000,4.000000,4.000000,4.000000,100.000000,,,,,,,,,,,,,,,,,,,,,,,,,,,,
1649269240.137572,1649269240.182926,15.000000,0.000000,4275.769043,4333.077148,4244.871582,4276.282227,4261.538574,4241.538574,4234.871582,4230.256348,4237.820313,4245.512695,4215.000000,4232.436035,4223.974121,4277.820313,3378.000000,3.000000,55.000000,,,,0.000000,4.000000,4.000000,4.000000,4.000000,4.000000,4.000000,4.000000,4.000000,4.000000,4.000000,4.000000,4.000000,4.000000,4.000000,100.000000,,,,,,,,,,,,,,,,,,,,,,,,,,,,
1649269240.145393,1649269240.190652,16.000000,0.000000,4275.512695,4334.743652,4247.436035,4277.436035,4261.666504,4243.846191,4238.846191,4232.307617,4240.256348,4249.102539,4220.769043,4231.538574,4229.230957,4276.538574,0.000000,3.000000,55.000000,,,,0.000000,4.000000,4.000000,4.000000,4.000000,4.000000,4.000000,4.000000,4.000000,4.000000,4.000000,4.000000,4.000000,4.000000,4.000000,100.000000,,,,,,,,,,,,,,,,,4.000000,0.000000,0.170602,-0.664856,0.156982,-0.710083,0.903334,-0.452644,0.062013,-33.347065,-110.359352,-2.841230
1649269240.153213,1649269240.198477,17.000000,0.000000,4277.307617,4329.871582,4249.743652,4279.743652,4266.922852,4238.974121,4241.538574,4233.717773,4248.077148,4249.871582,4231.282227,4241.282227,4233.846191,4279.487305,0.000000,3.000000,55.000000,,,,0.000000,4.000000,4.000000,4.000000,4.000000,4.000000,4.000000,4.000000,4.000000,4.000000,4.000000,4.000000,4.000000,4.000000,4.000000,100.000000,,,,,,,,,,,,,,,,,,,,,,,,,,,,
1649269240.161034,1649269240.206303,18.000000,0.000000,4276.666504,4325.128418,4246.794922,4277.820313,4263.589844,4234.102539,4236.410156,4238.846191,4248.974121,4250.384766,4233.205078,4246.922852,4236.922852,4280.512695,0.000000,3.000000,55.000000,,,,0.000000,4.000000,4.000000,4.000000,4.000000,4.000000,4.000000,4.000000,4.000000,4.000000,4.000000,4.000000,4.000000,4.000000,4.000000,100.000000,,,,,,,,,,,,,,,,,,,,,,,,,,,,
1649269240.168854,1649269240.214029,19.000000,0.000000,4277.563965,4329.358887,4253.846191,4279.743652,4256.666504,4243.589844,4233.333496,4246.282227,4250.384766,4254.615234,4232.307617,4238.077148,4242.948730,4274.230957,0.000000,3.000000,55.000000,,,,0.000000,4.000000,4.000000,4.000000,4.000000,4.000000,4.000000,4.000000,4.000000,4.000000,4.000000,4.000000,4.000000,4.000000,4.000000,100.000000,,,,,,,,,,,,,,,,,,,,,,,,,,,,
1649269240.176675,1649269240.221854,20.000000,0.000000,4274.487305,4327.820313,4263.077148,4278.077148,4251.410156,4248.205078,4235.769043,4240.897461,4250.000000,4251.025879,4227.948730,4228.846191,4237.948730,4267.820313,0.000000,3.000000,55.000000,,,,0.000000,4.000000,4.000000,4.000000,4.000000,4.000000,4.000000,4.000000,4.000000,4.000000,4.000000,4.000000,4.000000,4.000000,4.000000,100.000000,,,,,,,,,,,,,,,,,5.000000,0.000000,0.170351,-0.664978,0.156738,-0.710083,0.912123,-0.453620,0.064454,-33.347065,-110.807968,-0.598154
1649269240.184496,1649269240.229580,21.000000,0.000000,4274.230957,4327.051270,4259.615234,4278.974121,4250.512695,4236.922852,4239.487305,4230.897461,4247.948730,4247.820313,4226.794922,4240.897461,4231.922852,4277.948730,0.000000,3.000000,55.000000,,,,0.000000,4.000000,4.000000,4.000000,4.000000,4.000000,4.000000,4.000000,4.000000,4.000000,4.000000,4.000000,4.000000,4.000000,4.000000,100.000000,0.976563,25.000000,4.000000,1.000000,4.000000,4.000000,4.000000,1.000000,4.000000,4.000000,4.000000,4.000000,4.000000,4.000000,1.000000,4.000000,,,,,,,,,,,,
1649269240.192316,1649269240.237406,22.000000,0.000000,4274.358887,4327.692383,4249.230957,4281.666504,4253.461426,4236.922852,4244.615234,4235.512695,4247.563965,4250.641113,4228.333496,4249.615234,4232.051270,4287.051270,0.000000,3.000000,55.000000,,,,0.000000,4.000000,4.000000,4.000000,4.000000,4.000000,4.000000,4.000000,4.000000,4.000000,4.000000,4.000000,4.000000,4.000000,4.000000,100.000000,,,,,,,,,,,,,,,,,,,,,,,,,,,,
1649269240.200137,1649269240.245131,23.000000,0.000000,4261.282227,4304.230957,4244.102539,4269.871582,4247.051270,4243.461426,4248.461426,4238.077148,4237.692383,4237.948730,4214.615234,4235.897461,4207.948730,4266.922852,0.000000,3.000000,55.000000,,,,0.000000,4.000000,4.000000,4.000000,4.000000,4.000000,4.000000,4.000000,4.000000,4.000000,4.000000,4.000000,4.000000,4.000000,4.000000,100.000000,,,,,,,,,,,,,,,,,,,,,,,,,,,,
1649269240.207958,1649269240.252957,24.000000,0.000000,4259.615234,4297.051270,4248.717773,4265.384766,4243.717773,4237.948730,4247.948730,4232.692383,4232.436035,4229.743652,4211.410156,4233.589844,4197.307617,4258.077148,0.000000,3.000000,55.000000,,,,0.000000,4.000000,4.000000,4.000000,4.000000,4.000000,4.000000,4.000000,4.000000,4.000000,4.000000,4.000000,4.000000,4.000000,4.000000,100.000000,,,,,,,,,,,,,,,,,6.000000,0.000000,0.169827,-0.665039,0.156494,-0.710205,0.909194,-0.459480,0.062989,-33.646145,-111.854736,-0.299077
1649269240.215778,1649269240.260683,25.000000,0.000000,4274.743652,4323.461426,4252.820313,4279.871582,4257.820313,4236.922852,4248.205078,4238.717773,4247.820313,4249.743652,4242.948730,4242.179688,4240.384766,4278.589844,0.000000,3.000000,55.000000,,,,0.000000,4.000000,4.000000,4.000000,4.000000,4.000000,4.000000,4.000000,4.000000,4.000000,4.000000,4.000000,4.000000,4.000000,4.000000,100.000000,,,,,,,,,,,,,,,,,,,,,,,,,,,,
1649269240.223599,1649269240.268508,26.000000,0.000000,4265.384766,4321.282227,4248.717773,4285.256348,4265.641113,4245.512695,4247.948730,4247.307617,4255.769043,4258.974121,4260.000000,4236.538574,4264.230957,4277.820313,0.000000,3.000000,55.000000,,,,0.000000,4.000000,4.000000,4.000000,4.000000,4.000000,4.000000,4.000000,4.000000,4.000000,4.000000,4.000000,4.000000,4.000000,4.000000,100.000000,,,,,,,,,,,,,,,,,,,,,,,,,,,,
1649269240.231419,1649269240.276234,27.000000,0.000000,4243.077148,4295.641113,4245.641113,4276.922852,4251.666504,4247.051270,4247.692383,4244.358887,4246.666504,4244.615234,4241.282227,4228.461426,4234.487305,4259.615234,0.000000,3.000000,55.000000,,,,0.000000,4.000000,4.000000,4.000000,4.000000,4.000000,4.000000,4.000000,4.000000,4.000000,4.000000,4.000000,4.000000,4.000000,4.000000,100.000000,,,,,,,,,,,,,,,,,,,,,,,,,,,,
1649269240.239240,1649269240.284060,28.000000,0.000000,4252.051270,4302.307617,4250.128418,4278.205078,4245.641113,4245.128418,4242.436035,4239.358887,4245.769043,4243.974121,4239.743652,4233.461426,4228.333496,4263.846191,0.000000,3.000000,55.000000,,,,0.000000,4.000000,4.000000,4.000000,4.000000,4.000000,4.000000,4.000000,4.000000,4.000000,4.000000,4.000000,4.000000,4.000000,4.000000,100.000000,,,,,,,,,,,,,,,,,7.000000,0.000000,0.169414,-0.665100,0.156128,-0.710327,0.905776,-0.443854,0.065919,-34.543373,-111.406120,-2.093538
1649269240.247061,1649269240.291785,29.000000,0.000000,4267.563965,4316.666504,4252.307617,4283.589844,4262.563965,4246.282227,4234.358887,4244.358887,4252.307617,4252.692383,4250.000000,4236.282227,4247.051270,4271.538574,0.000000,3.000000,55.000000,,,,0.000000,4.000000,4.000000,4.000000,4.000000,4.000000,4.000000,4.000000,4.000000,4.000000,4.000000,4.000000,4.000000,4.000000,4.000000,100.000000,,,,,,,,,,,,,,,,,,,,,,,,,,,,
1649269240.254881,1649269240.299511,30.000000,0.000000,4258.461426,4307.307617,4248.205078,4282.692383,4265.128418,4240.897461,4233.077148,4247.436035,4247.307617,4248.461426,4239.743652,4232.051270,4240.000000,4263.974121,0.000000,3.000000,55.000000,,,,0.000000,4.000000,4.000000,4.000000,4.000000,4.000000,4.000000,4.000000,4.000000,4.000000,4.000000,4.000000,4.000000,4.000000,4.000000,100.000000,,,,,,,,,,,,,,,,,,,,,,,,,,,,
1649269240.262702,1649269240.307337,31.000000,0.000000,4245.512695,4298.461426,4244.743652,4282.948730,4247.307617,4236.410156,4231.282227,4237.051270,4236.538574,4240.256348,4234.743652,4230.897461,4228.589844,4260.000000,0.000000,3.000000,55.000000,,,,0.000000,4.000000,4.000000,4.000000,4.000000,4.000000,4.000000,4.000000,4.000000,4.000000,4.000000,4.000000,4.000000,4.000000,4.000000,100.000000,,,,,,,,,,,,,,,,,,,,,,,,,,,,
1649269240.270522,1649269240.315062,32.000000,0.000000,4245.128418,4296.794922,4244.487305,4282.307617,4246.922852,4234.871582,4226.794922,4230.256348,4233.205078,4235.128418,4242.307617,4231.538574,4228.333496,4261.794922,0.000000,3.000000,55.000000,,,,0.000000,4.000000,4.000000,4.000000,4.000000,4.000000,4.000000,4.000000,4.000000,4.000000,4.000000,4.000000,4.000000,4.000000,4.000000,100.000000,,,,,,,,,,,,,,,,,8.000000,0.000000,0.168885,-0.665039,0.156128,-0.710510,0.903822,-0.439948,0.072755,-33.047989,-110.209808,-2.691691
1649269240.278343,1649269240.322888,33.000000,0.000000,4250.128418,4297.051270,4245.769043,4280.512695,4259.871582,4234.743652,4227.179688,4234.743652,4238.205078,4238.846191,4244.358887,4232.307617,4228.461426,4262.820313,0.000000,3.000000,55.000000,,,,0.000000,4.000000,4.000000,4.000000,4.000000,4.000000,4.000000,4.000000,4.000000,4.000000,4.000000,4.000000,4.000000,4.000000,4.000000,100.000000,,,,,,,,,,,,,,,,,,,,,,,,,,,,
1649269240.286164,1649269240.330614,34.000000,0.000000,4251.666504,4297.820313,4248.461426,4281.538574,4257.948730,4237.051270,4229.743652,4235.641113,4238.333496,4246.666504,4243.589844,4231.922852,4232.692383,4262.820313,0.000000,3.000000,55.000000,,,,0.000000,4.000000,4.000000,4.000000,4.000000,4.000000,4.000000,4.000000,4.000000,4.000000,4.000000,4.000000,4.000000,4.000000,4.000000,100.000000,,,,,,,,,,,,,,,,,,,,,,,,,,,,
1649269240.293984,1649269240.338339,35.000000,0.000000,4249.102539,4294.871582,4243.205078,4278.974121,4248.205078,4237.307617,4228.333496,4234.230957,4235.000000,4244.871582,4237.051270,4230.897461,4227.563965,4258.205078,0.000000,3.000000,55.000000,,,,0.000000,4.000000,4.000000,4.000000,4.000000,4.000000,4.000000,4.000000,4.000000,4.000000,4.000000,4.000000,4.000000,4.000000,4.000000,100.000000,,,,,,,,,,,,,,,,,,,,,,,,,,,,
1649269240.301805,1649269240.346165,36.000000,0.000000,4251.538574,4294.102539,4234.102539,4266.666504,4247.948730,4238.077148,4228.717773,4245.000000,4242.051270,4242.307617,4230.384766,4231.282227,4218.333496,4259.615234,0.000000,3.000000,55.000000,,,,0.000000,4.000000,4.000000,4.000000,4.000000,4.000000,4.000000,4.000000,4.000000,4.000000,4.000000,4.000000,4.000000,4.000000,4.000000,100.000000,,,,,,,,,,,,,,,,,9.000000,0.000000,0.169222,-0.664917,0.156006,-0.710571,0.914076,-0.438972,0.067384,-33.646145,-111.406120,-2.093538
1649269240.309626,1649269240.353991,37.000000,0.000000,4259.743652,4294.615234,4238.461426,4261.794922,4254.743652,4241.922852,4230.128418,4248.461426,4248.846191,4248.205078,4240.000000,4233.846191,4227.692383,4266.410156,0.000000,3.000000,55.000000,,,,0.000000,4.000000,4.000000,4.000000,4.000000,4.000000,4.000000,4.000000,4.000000,4.000000,4.000000,4.000000,4.000000,4.000000,4.000000,100.000000,,,,,,,,,,,,,,,,,,,,,,,,,,,,
1649269240.317446,1649269240.361716,38.000000,0.000000,4265.512695,4295.256348,4248.974121,4272.692383,4263.205078,4243.205078,4223.461426,4234.487305,4243.974121,4249.102539,4253.846191,4235.384766,4241.025879,4267.948730,0.000000,3.000000,55.000000,,,,0.000000,4.000000,4.000000,4.000000,4.000000,4.000000,4.000000,4.000000,4.000000,4.000000,4.000000,4.000000,4.000000,4.000000,4.000000,100.000000,,,,,,,,,,,,,,,,,,,,,,,,,,,,
1649269240.325267,1649269240.369542,39.000000,0.000000,4264.487305,4296.666504,4247.436035,4275.000000,4264.743652,4237.307617,4215.512695,4226.538574,4239.615234,4242.307617,4250.000000,4233.846191,4236.538574,4266.153809,0.000000,3.000000,55.000000,,,,0.000000,4.000000,4.000000,4.000000,4.000000,4.000000,4.000000,4.000000,4.000000,4.000000,4.000000,4.000000,4.000000,4.000000,4.000000,100.000000,,,,,,,,,,,,,,,,,,,,,,,,,,,,
1649269240.333088,1649269240.377268,40.000000,0.000000,4260.641113,4295.512695,4242.692383,4265.897461,4258.205078,4233.846191,4217.436035,4228.589844,4237.692383,4241.282227,4239.615234,4231.282227,4228.589844,4263.461426,0.000000,3.000000,55.000000,,,,0.000000,4.000000,4.000000,4.000000,4.000000,4.000000,4.000000,4.000000,4.000000,4.000000,4.000000,4.000000,4.000000,4.000000,4.000000,100.000000,,,,,,,,,,,,,,,,,10.000000,0.000000,0.169203,-0.664734,0.156250,-0.710693,0.895521,-0.442390,0.059083,-34.094757,-110.807968,-2.093538
1649269240.340908,1649269240.385093,41.000000,0.000000,4264.487305,4295.128418,4247.179688,4266.025879,4258.333496,4239.487305,4227.179688,4228.717773,4236.922852,4245.512695,4242.436035,4232.820313,4231.153809,4264.487305,0.000000,3.000000,55.000000,,,,0.000000,4.000000,4.000000,4.000000,4.000000,4.000000,4.000000,4.000000,4.000000,4.000000,4.000000,4.000000,4.000000,4.000000,4.000000,100.000000,,,,,,,,,,,,,,,,,,,,,,,,,,,,
1649269240.348729,1649269240.392819,42.000000,0.000000,4276.410156,4295.000000,4252.820313,4269.102539,4265.769043,4246.410156,4232.436035,4235.384766,4248.077148,4254.102539,4258.717773,4240.769043,4247.051270,4275.384766,0.000000,3.000000,55.000000,,,,0.000000,4.000000,4.000000,4.000000,4.000000,4.000000,4.000000,4.000000,4.000000,4.000000,4.000000,4.000000,4.000000,4.000000,4.000000,100.000000,,,,,,,,,,,,,,,,,,,,,,,,,,,,
1649269240.356549,1649269240.400645,43.000000,0.000000,4280.512695,4297.051270,4253.077148,4264.102539,4262.307617,4246.794922,4225.512695,4247.179688,4260.897461,4262.948730,4269.102539,4245.769043,4263.461426,4283.717773,0.000000,3.000000,55.000000,,,,0.000000,4.000000,4.000000,4.000000,4.000000,4.000000,4.000000,4.000000,4.000000,4.000000,4.000000,4.000000,4.000000,4.000000,4.000000,100.000000,,,,,,,,,,,,,,,,,,,,,,,,,,,,
1649269240.364370,1649269240.408370,44.000000,0.000000,4277.051270,4305.512695,4248.974121,4263.333496,4255.256348,4243.846191,4223.974121,4248.717773,4262.692383,4264.358887,4263.717773,4246.410156,4257.820313,4279.743652,0.000000,3.000000,55.000000,,,,0.000000,4.000000,4.000000,4.000000,4.000000,4.000000,4.000000,4.000000,4.000000,4.000000,4.000000,4.000000,4.000000,4.000000,4.000000,100.000000,,,,,,,,,,,,,,,,,11.000000,0.000000,0.168947,-0.664734,0.156250,-0.710754,0.917983,-0.437507,0.070314,-33.047989,-112.303352,-0.897231
1649269240.372191,1649269240.416196,45.000000,0.000000,4278.974121,4308.717773,4249.615234,4264.230957,4260.641113,4244.743652,4228.589844,4247.307617,4258.333496,4262.179688,4258.461426,4248.205078,4243.333496,4276.282227,0.000000,3.000000,55.000000,,,,0.000000,4.000000,4.000000,4.000000,4.000000,4.000000,4.000000,4.000000,4.000000,4.000000,4.000000,4.000000,4.000000,4.000000,4.000000,100.000000,,,,,,,,,,,,,,,,,,,,,,,,,,,,
1649269240.380011,1649269240.423922,46.000000,0.000000,4278.717773,4297.820313,4254.358887,4256.666504,4263.974121,4244.358887,4222.307617,4248.205078,4253.077148,4262.307617,4262.563965,4247.948730,4249.487305,4281.025879,0.000000,3.000000,55.000000,,,,0.000000,4.000000,4.000000,4.000000,4.000000,4.000000,4.000000,4.000000,4.000000,4.000000,4.000000,4.000000,4.000000,4.000000,4.000000,100.000000,,,,,,,,,,,,,,,,,,,,,,,,,,,,
1649269240.387832,1649269240.431747,47.000000,0.000000,4274.102539,4289.615234,4253.077148,4255.512695,4258.589844,4243.589844,4218.205078,4248.717773,4252.179688,4261.922852,4263.717773,4246.410156,4259.230957,4281.794922,0.000000,3.000000,55.000000,,,,0.000000,4.000000,4.000000,4.000000,4.000000,4.000000,4.000000,4.000000,4.000000,4.000000,4.000000,4.000000,4.000000,4.000000,4.000000,100.000000,,,,,,,,,,,,,,,,,,,,,,,,,,,,
1649269240.395652,1649269240.439473,48.000000,0.000000,4276.794922,4300.256348,4249.487305,4263.717773,4259.743652,4244.102539,4227.436035,4250.384766,4260.256348,4260.256348,4261.922852,4249.871582,4256.282227,4278.333496,0.000000,3.000000,55.000000,,,,0.000000,4.000000,4.000000,4.000000,4.000000,4.000000,4.000000,4.000000,4.000000,4.000000,4.000000,4.000000,4.000000,4.000000,4.000000,100.000000,,,,,,,,,,,,,,,,,12.000000,0.000000,0.169457,-0.664612,0.156494,-0.710693,0.895521,-0.438972,0.075196,-33.047989,-112.004272,-2.990768
1649269240.403473,1649269240.447299,49.000000,0.000000,4280.641113,4304.743652,4249.358887,4265.256348,4265.256348,4244.102539,4228.974121,4249.230957,4263.077148,4260.897461,4264.358887,4252.179688,4254.358887,4278.461426,0.000000,3.000000,55.000000,,,,0.000000,4.000000,4.000000,4.000000,4.000000,4.000000,4.000000,4.000000,4.000000,4.000000,4.000000,4.000000,4.000000,4.000000,4.000000,100.000000,,,,,,,,,,,,,,,,,,,,,,,,,,,,
1649269240.411294,1649269240.455024,50.000000,0.000000,4280.641113,4297.692383,4249.358887,4263.974121,4264.358887,4244.102539,4220.512695,4245.897461,4261.025879,4263.974121,4267.051270,4250.384766,4262.692383,4281.538574,0.000000,3.000000,55.000000,,,,0.000000,4.000000,4.000000,4.000000,4.000000,4.000000,4.000000,4.000000,4.000000,4.000000,4.000000,4.000000,4.000000,4.000000,4.000000,100.000000,,,,,,,,,,,,,,,,,,,,,,,,,,,,
1649269240.419114,1649269240.462750,51.000000,0.000000,4280.384766,4299.102539,4246.025879,4264.358887,4263.205078,4244.102539,4222.692383,4249.743652,4265.128418,4266.922852,4263.974121,4248.205078,4267.820313,4282.820313,0.000000,3.000000,55.000000,,,,0.000000,4.000000,4.000000,4.000000,4.000000,4.000000,4.000000,4.000000,4.000000,4.000000,4.000000,4.000000,4.000000,4.000000,4.000000,100.000000,,,,,,,,,,,,,,,,,,,,,,,,,,,,
1649269240.426935,1649269240.470576,52.000000,0.000000,4278.333496,4303.846191,4245.512695,4262.051270,4264.487305,4244.102539,4231.282227,4253.461426,4266.666504,4267.051270,4259.871582,4245.000000,4262.692383,4280.128418,0.000000,3.000000,55.000000,,,,0.000000,4.000000,4.000000,4.000000,4.000000,4.000000,4.000000,4.000000,4.000000,4.000000,4.000000,4.000000,4.000000,4.000000,4.000000,100.000000,,,,,,,,,,,,,,,,,13.000000,0.000000,0.169323,-0.664856,0.156433,-0.710510,0.909682,-0.440925,0.053712,-33.347065,-110.807968,-2.542153
1649269240.434755,1649269240.478401,53.000000,0.000000,4279.487305,4305.512695,4249.102539,4265.128418,4265.384766,4244.102539,4230.641113,4248.461426,4262.051270,4265.897461,4261.538574,4246.538574,4262.307617,4279.615234,0.000000,3.000000,55.000000,,,,0.000000,4.000000,4.000000,4.000000,4.000000,4.000000,4.000000,4.000000,4.000000,4.000000,4.000000,4.000000,4.000000,4.000000,4.000000,100.000000,,,,,,,,,,,,,,,,,,,,,,,,,,,,
1649269240.442576,1649269240.486127,54.000000,0.000000,4283.717773,4306.025879,4250.128418,4270.769043,4265.769043,4244.743652,4223.077148,4245.000000,4260.897461,4265.897461,4264.743652,4250.000000,4267.179688,4282.307617,0.000000,3.000000,55.000000,,,,0.000000,4.000000,4.000000,4.000000,4.000000,4.000000,4.000000,4.000000,4.000000,4.000000,4.000000,4.000000,4.000000,4.000000,4.000000,100.000000,,,,,,,,,,,,,,,,,,,,,,,,,,,,
