title:Eleccion2, start timestamp:1649269460.789030, stop timestamp:1649269493.534141, headset type:EPOCPLUS, headset serial:4A2C0467, headset firmware:633, channels:67, sampling rate:eeg_128;mot_32, samples:4185      , version:2.1, 
Timestamp,OriginalTimestamp,EEG.Counter,EEG.Interpolated,EEG.AF3,EEG.F7,EEG.F3,EEG.FC5,EEG.T7,EEG.P7,EEG.O1,EEG.O2,EEG.P8,EEG.T8,EEG.FC6,EEG.F4,EEG.F8,EEG.AF4,EEG.RawCq,EEG.Battery,EEG.BatteryPercent,MarkerIndex,MarkerType,MarkerValueInt,EEG.MarkerHardware,CQ.AF3,CQ.F7,CQ.F3,CQ.FC5,CQ.T7,CQ.P7,CQ.O1,CQ.O2,CQ.P8,CQ.T8,CQ.FC6,CQ.F4,CQ.F8,CQ.AF4,CQ.Overall,EQ.SampleRateQuality,EQ.OVERALL,EQ.AF3,EQ.F7,EQ.F3,EQ.FC5,EQ.T7,EQ.P7,EQ.O1,EQ.O2,EQ.P8,EQ.T8,EQ.FC6,EQ.F4,EQ.F8,EQ.AF4,MOT.CounterMems,MOT.InterpolatedMems,MOT.Q0,MOT.Q1,MOT.Q2,MOT.Q3,MOT.AccX,MOT.AccY,MOT.AccZ,MOT.MagX,MOT.MagY,MOT.MagZ
1649269460.789030,1649269460.818093,48.000000,0.000000,4262.563965,4234.230957,4251.538574,4276.794922,4255.897461,4240.000000,4249.102539,4259.871582,4243.974121,4253.077148,4302.307617,4263.205078,4363.205078,4283.974121,0.000000,1.000000,15.000000,,,,0.000000,4.000000,4.000000,4.000000,4.000000,4.000000,4.000000,4.000000,4.000000,4.000000,4.000000,4.000000,4.000000,4.000000,4.000000,100.000000,,,,,,,,,,,,,,,,,12.000000,0.000000,0.212516,-0.680969,0.135254,-0.687622,0.891127,-0.470710,0.038087,-34.692913,-112.004272,-4.187076
1649269460.796856,1649269460.825818,49.000000,0.000000,4246.410156,4210.384766,4250.128418,4260.256348,4254.743652,4240.641113,4252.051270,4261.794922,4241.538574,4249.102539,4296.153809,4264.487305,4350.641113,4270.000000,0.000000,1.000000,15.000000,,,,0.000000,4.000000,4.000000,4.000000,4.000000,4.000000,4.000000,4.000000,4.000000,4.000000,4.000000,4.000000,4.000000,4.000000,4.000000,100.000000,,,,,,,,,,,,,,,,,,,,,,,,,,,,
1649269460.804682,1649269460.833644,50.000000,0.000000,4242.692383,4207.563965,4244.743652,4257.563965,4249.230957,4234.102539,4250.641113,4260.000000,4242.948730,4259.230957,4296.410156,4259.358887,4352.692383,4261.538574,0.000000,1.000000,15.000000,,,,0.000000,4.000000,4.000000,4.000000,4.000000,4.000000,4.000000,4.000000,4.000000,4.000000,4.000000,4.000000,4.000000,4.000000,4.000000,100.000000,,,,,,,,,,,,,,,,,,,,,,,,,,,,
1649269460.812509,1649269460.841370,51.000000,0.000000,4252.948730,4216.922852,4247.051270,4265.512695,4254.358887,4233.589844,4251.025879,4262.692383,4246.153809,4264.871582,4296.153809,4260.000000,4351.794922,4266.025879,0.000000,1.000000,15.000000,,,,0.000000,4.000000,4.000000,4.000000,4.000000,4.000000,4.000000,4.000000,4.000000,4.000000,4.000000,4.000000,4.000000,4.000000,4.000000,100.000000,,,,,,,,,,,,,,,,,,,,,,,,,,,,
1649269460.820335,1649269460.849195,52.000000,0.000000,4249.871582,4213.205078,4251.538574,4261.922852,4255.256348,4235.384766,4247.692383,4263.461426,4248.846191,4262.948730,4293.205078,4256.922852,4342.820313,4266.153809,0.000000,1.000000,15.000000,,,,0.000000,4.000000,4.000000,4.000000,4.000000,4.000000,4.000000,4.000000,4.000000,4.000000,4.000000,4.000000,4.000000,4.000000,4.000000,100.000000,,,,,,,,,,,,,,,,,13.000000,0.000000,0.212121,-0.680786,0.135864,-0.687805,0.901381,-0.466316,0.024903,-34.692913,-113.798737,-5.233844
1649269460.828161,1649269460.856921,53.000000,0.000000,4245.256348,4211.666504,4251.410156,4259.871582,4245.256348,4232.820313,4243.461426,4261.794922,4246.922852,4260.256348,4293.205078,4252.436035,4336.794922,4261.922852,0.000000,1.000000,15.000000,,,,0.000000,4.000000,4.000000,4.000000,4.000000,4.000000,4.000000,4.000000,4.000000,4.000000,4.000000,4.000000,4.000000,4.000000,4.000000,100.000000,,,,,,,,,,,,,,,,,,,,,,,,,,,,
1649269460.835987,1649269460.864747,54.000000,0.000000,4258.717773,4217.563965,4250.256348,4265.256348,4246.153809,4238.077148,4246.794922,4263.461426,4245.769043,4261.666504,4297.051270,4260.512695,4338.846191,4266.025879,0.000000,1.000000,15.000000,,,,0.000000,4.000000,4.000000,4.000000,4.000000,4.000000,4.000000,4.000000,4.000000,4.000000,4.000000,4.000000,4.000000,4.000000,4.000000,100.000000,,,,,,,,,,,,,,,,,,,,,,,,,,,,
1649269460.843814,1649269460.872472,55.000000,0.000000,4261.794922,4218.717773,4248.205078,4265.000000,4258.077148,4244.871582,4248.974121,4264.871582,4251.410156,4264.871582,4296.025879,4261.922852,4334.871582,4260.897461,0.000000,1.000000,15.000000,,,,0.000000,4.000000,4.000000,4.000000,4.000000,4.000000,4.000000,4.000000,4.000000,4.000000,4.000000,4.000000,4.000000,4.000000,4.000000,100.000000,,,,,,,,,,,,,,,,,,,,,,,,,,,,
1649269460.851640,1649269460.880298,56.000000,0.000000,4248.846191,4213.846191,4247.948730,4261.666504,4262.948730,4239.743652,4248.333496,4263.974121,4249.487305,4256.538574,4288.974121,4251.538574,4319.743652,4249.230957,0.000000,1.000000,15.000000,,,,0.000000,4.000000,4.000000,4.000000,4.000000,4.000000,4.000000,4.000000,4.000000,4.000000,4.000000,4.000000,4.000000,4.000000,4.000000,100.000000,,,,,,,,,,,,,,,,,14.000000,0.000000,0.211567,-0.680847,0.135803,-0.687927,0.891127,-0.481453,0.027344,-33.347065,-113.350121,-6.579690
1649269460.859466,1649269460.888024,57.000000,0.000000,4252.436035,4214.102539,4250.256348,4261.282227,4258.077148,4233.205078,4255.128418,4267.692383,4242.563965,4247.307617,4287.948730,4255.641113,4317.436035,4257.948730,0.000000,1.000000,15.000000,,,,0.000000,4.000000,4.000000,4.000000,4.000000,4.000000,4.000000,4.000000,4.000000,4.000000,4.000000,4.000000,4.000000,4.000000,4.000000,100.000000,,,,,,,,,,,,,,,,,,,,,,,,,,,,
1649269460.867293,1649269460.895849,58.000000,0.000000,4265.256348,4219.871582,4252.948730,4262.820313,4254.743652,4235.256348,4265.128418,4277.820313,4245.897461,4254.102539,4290.256348,4264.871582,4322.948730,4271.153809,0.000000,1.000000,15.000000,,,,0.000000,4.000000,4.000000,4.000000,4.000000,4.000000,4.000000,4.000000,4.000000,4.000000,4.000000,4.000000,4.000000,4.000000,4.000000,100.000000,,,,,,,,,,,,,,,,,,,,,,,,,,,,
1649269460.875119,1649269460.903575,59.000000,0.000000,4254.743652,4212.051270,4248.461426,4262.179688,4251.794922,4236.282227,4262.051270,4275.512695,4246.153809,4254.487305,4282.436035,4252.948730,4316.153809,4260.769043,0.000000,1.000000,15.000000,,,,0.000000,4.000000,4.000000,4.000000,4.000000,4.000000,4.000000,4.000000,4.000000,4.000000,4.000000,4.000000,4.000000,4.000000,4.000000,100.000000,,,,,,,,,,,,,,,,,,,,,,,,,,,,
1649269460.882945,1649269460.911401,60.000000,0.000000,4241.410156,4204.743652,4243.846191,4258.846191,4243.846191,4233.077148,4252.179688,4264.871582,4240.128418,4246.282227,4277.051270,4241.410156,4311.538574,4252.948730,0.000000,1.000000,15.000000,,,,0.000000,4.000000,4.000000,4.000000,4.000000,4.000000,4.000000,4.000000,4.000000,4.000000,4.000000,4.000000,4.000000,4.000000,4.000000,100.000000,,,,,,,,,,,,,,,,,15.000000,0.000000,0.211296,-0.681091,0.135620,-0.687805,0.881849,-0.468269,0.026856,-32.449837,-112.901505,-4.635691
1649269460.890771,1649269460.919126,61.000000,0.000000,4248.461426,4213.333496,4254.230957,4258.589844,4252.179688,4233.846191,4251.025879,4267.179688,4246.025879,4253.589844,4286.666504,4249.102539,4321.410156,4263.205078,0.000000,1.000000,15.000000,,,,0.000000,4.000000,4.000000,4.000000,4.000000,4.000000,4.000000,4.000000,4.000000,4.000000,4.000000,4.000000,4.000000,4.000000,4.000000,100.000000,,,,,,,,,,,,,,,,,,,,,,,,,,,,
1649269460.898598,1649269460.926952,62.000000,0.000000,4250.769043,4218.589844,4265.000000,4262.563965,4269.615234,4234.743652,4251.025879,4277.948730,4252.436035,4263.717773,4295.128418,4252.307617,4328.589844,4268.717773,0.000000,1.000000,15.000000,,,,0.000000,4.000000,4.000000,4.000000,4.000000,4.000000,4.000000,4.000000,4.000000,4.000000,4.000000,4.000000,4.000000,4.000000,4.000000,100.000000,,,,,,,,,,,,,,,,,,,,,,,,,,,,
1649269460.906424,1649269460.934678,63.000000,0.000000,4244.743652,4217.179688,4258.205078,4262.563965,4257.436035,4232.307617,4245.769043,4280.128418,4250.000000,4264.358887,4293.077148,4248.846191,4321.410156,4265.512695,0.000000,1.000000,15.000000,,,,0.000000,4.000000,4.000000,4.000000,4.000000,4.000000,4.000000,4.000000,4.000000,4.000000,4.000000,4.000000,4.000000,4.000000,4.000000,100.000000,,,,,,,,,,,,,,,,,,,,,,,,,,,,
1649269460.914250,1649269460.942503,64.000000,0.000000,4239.743652,4212.436035,4246.538574,4252.563965,4229.743652,4228.461426,4241.538574,4269.871582,4243.461426,4260.769043,4286.922852,4247.692383,4311.922852,4254.743652,2777.000000,1.000000,15.000000,,,,0.000000,4.000000,4.000000,4.000000,4.000000,4.000000,4.000000,4.000000,4.000000,4.000000,4.000000,4.000000,4.000000,4.000000,4.000000,100.000000,,,,,,,,,,,,,,,,,16.000000,0.000000,0.211381,-0.681335,0.135498,-0.687561,0.894057,-0.474128,0.040528,-33.047989,-113.051041,-4.486153
1649269460.922076,1649269460.950229,65.000000,0.000000,4234.743652,4207.051270,4247.051270,4244.615234,4228.974121,4227.179688,4242.436035,4264.358887,4236.153809,4252.563965,4281.410156,4243.717773,4309.102539,4248.205078,3214.000000,1.000000,15.000000,,,,0.000000,4.000000,4.000000,4.000000,4.000000,4.000000,4.000000,4.000000,4.000000,4.000000,4.000000,4.000000,4.000000,4.000000,4.000000,100.000000,,,,,,,,,,,,,,,,,,,,,,,,,,,,
1649269460.929903,1649269460.958055,66.000000,0.000000,4237.820313,4212.563965,4250.897461,4247.179688,4245.769043,4229.743652,4244.871582,4269.102539,4236.794922,4252.948730,4278.205078,4244.743652,4310.897461,4258.974121,3273.000000,1.000000,15.000000,,,,0.000000,4.000000,4.000000,4.000000,4.000000,4.000000,4.000000,4.000000,4.000000,4.000000,4.000000,4.000000,4.000000,4.000000,4.000000,100.000000,,,,,,,,,,,,,,,,,,,,,,,,,,,,
1649269460.937729,1649269460.965780,67.000000,0.000000,4241.666504,4221.025879,4248.974121,4248.846191,4248.333496,4231.410156,4245.897461,4269.743652,4246.153809,4262.563965,4277.948730,4248.717773,4312.436035,4266.538574,2824.000000,1.000000,15.000000,,,,0.000000,4.000000,4.000000,4.000000,4.000000,4.000000,4.000000,4.000000,4.000000,4.000000,4.000000,4.000000,4.000000,4.000000,4.000000,100.000000,,,,,,,,,,,,,,,,,,,,,,,,,,,,
1649269460.945555,1649269460.973606,68.000000,0.000000,4234.487305,4218.589844,4244.615234,4249.615234,4246.410156,4230.769043,4246.666504,4263.461426,4246.538574,4258.205078,4278.717773,4247.179688,4307.179688,4254.358887,3317.000000,1.000000,15.000000,,,,0.000000,4.000000,4.000000,4.000000,4.000000,4.000000,4.000000,4.000000,4.000000,4.000000,4.000000,4.000000,4.000000,4.000000,4.000000,100.000000,,,,,,,,,,,,,,,,,17.000000,0.000000,0.211540,-0.681396,0.135254,-0.687500,0.875502,-0.476081,0.030274,-32.898453,-112.901505,-4.336614
1649269460.953381,1649269460.981332,69.000000,0.000000,4228.205078,4212.563965,4242.051270,4247.692383,4243.205078,4230.769043,4246.025879,4261.282227,4236.025879,4245.897461,4273.589844,4246.282227,4300.384766,4246.410156,3067.000000,1.000000,15.000000,,,,0.000000,4.000000,4.000000,4.000000,4.000000,4.000000,4.000000,4.000000,4.000000,4.000000,4.000000,4.000000,4.000000,4.000000,4.000000,100.000000,,,,,,,,,,,,,,,,,,,,,,,,,,,,
1649269460.961208,1649269460.989057,70.000000,0.000000,4231.410156,4206.794922,4245.512695,4237.948730,4236.538574,4231.922852,4245.000000,4263.461426,4231.794922,4247.307617,4264.487305,4245.000000,4296.410156,4251.153809,3299.000000,1.000000,15.000000,,,,0.000000,4.000000,4.000000,4.000000,4.000000,4.000000,4.000000,4.000000,4.000000,4.000000,4.000000,4.000000,4.000000,4.000000,4.000000,100.000000,,,,,,,,,,,,,,,,,,,,,,,,,,,,
1649269460.969034,1649269460.996883,71.000000,0.000000,4230.512695,4205.128418,4248.589844,4235.512695,4238.461426,4231.282227,4244.230957,4262.051270,4235.769043,4251.666504,4265.256348,4242.948730,4294.102539,4250.000000,3215.000000,1.000000,15.000000,,,,0.000000,4.000000,4.000000,4.000000,4.000000,4.000000,4.000000,4.000000,4.000000,4.000000,4.000000,4.000000,4.000000,4.000000,4.000000,100.000000,,,,,,,,,,,,,,,,,,,,,,,,,,,,
1649269460.976860,1649269461.004609,72.000000,0.000000,4227.436035,4215.000000,4247.692383,4245.769043,4243.461426,4229.743652,4245.256348,4262.307617,4236.922852,4247.820313,4273.077148,4245.000000,4293.589844,4247.051270,4158.000000,1.000000,15.000000,,,,0.000000,4.000000,4.000000,4.000000,4.000000,4.000000,4.000000,4.000000,4.000000,4.000000,4.000000,4.000000,4.000000,4.000000,4.000000,100.000000,,,,,,,,,,,,,,,,,18.000000,0.000000,0.211578,-0.681519,0.134888,-0.687439,0.889174,-0.483894,0.018555,-33.047989,-110.209808,-4.486153
1649269460.984686,1649269461.012434,73.000000,0.000000,4230.000000,4218.974121,4248.974121,4246.666504,4237.436035,4229.871582,4245.897461,4262.820313,4234.358887,4243.077148,4273.974121,4246.282227,4295.256348,4247.820313,3264.000000,1.000000,15.000000,,,,0.000000,4.000000,4.000000,4.000000,4.000000,4.000000,4.000000,4.000000,4.000000,4.000000,4.000000,4.000000,4.000000,4.000000,4.000000,100.000000,,,,,,,,,,,,,,,,,,,,,,,,,,,,
1649269460.992513,1649269461.020160,74.000000,0.000000,4231.282227,4207.307617,4248.205078,4234.743652,4230.384766,4230.128418,4244.615234,4262.563965,4239.358887,4245.769043,4273.205078,4249.230957,4294.487305,4248.333496,3183.000000,1.000000,15.000000,,,,0.000000,4.000000,4.000000,4.000000,4.000000,4.000000,4.000000,4.000000,4.000000,4.000000,4.000000,4.000000,4.000000,4.000000,4.000000,100.000000,,,,,,,,,,,,,,,,,,,,,,,,,,,,
1649269461.000339,1649269461.027986,75.000000,0.000000,4232.307617,4205.641113,4243.205078,4234.102539,4233.589844,4230.897461,4245.769043,4266.538574,4246.410156,4250.641113,4280.128418,4256.282227,4294.743652,4249.615234,3249.000000,1.000000,15.000000,,,,0.000000,4.000000,4.000000,4.000000,4.000000,4.000000,4.000000,4.000000,4.000000,4.000000,4.000000,4.000000,4.000000,4.000000,4.000000,100.000000,,,,,,,,,,,,,,,,,,,,,,,,,,,,
1649269461.008165,1649269461.035811,76.000000,0.000000,4231.153809,4216.666504,4246.410156,4239.358887,4235.128418,4233.333496,4250.000000,4268.846191,4240.000000,4249.102539,4280.897461,4255.769043,4296.666504,4249.743652,3204.000000,1.000000,15.000000,,,,0.000000,4.000000,4.000000,4.000000,4.000000,4.000000,4.000000,4.000000,4.000000,4.000000,4.000000,4.000000,4.000000,4.000000,4.000000,100.000000,,,,,,,,,,,,,,,,,19.000000,0.000000,0.211617,-0.681641,0.134521,-0.687378,0.885267,-0.489265,0.034668,-33.496605,-111.705193,-4.934768
1649269461.015992,1649269461.043537,77.000000,0.000000,4227.307617,4216.153809,4246.282227,4236.666504,4233.461426,4230.897461,4245.128418,4259.743652,4229.102539,4244.230957,4268.589844,4246.794922,4290.897461,4244.871582,3195.000000,1.000000,15.000000,,,,0.000000,4.000000,4.000000,4.000000,4.000000,4.000000,4.000000,4.000000,4.000000,4.000000,4.000000,4.000000,4.000000,4.000000,4.000000,100.000000,,,,,,,,,,,,,,,,,,,,,,,,,,,,
1649269461.023818,1649269461.051263,78.000000,0.000000,4227.051270,4208.333496,4236.282227,4232.692383,4230.769043,4226.025879,4235.256348,4251.025879,4228.846191,4243.846191,4265.128418,4244.358887,4286.282227,4240.512695,3183.000000,1.000000,15.000000,,,,0.000000,4.000000,4.000000,4.000000,4.000000,4.000000,4.000000,4.000000,4.000000,4.000000,4.000000,4.000000,4.000000,4.000000,4.000000,100.000000,,,,,,,,,,,,,,,,,,,,,,,,,,,,
1649269461.031644,1649269461.058988,79.000000,0.000000,4234.358887,4213.717773,4237.820313,4234.102539,4227.307617,4227.563965,4241.538574,4260.769043,4242.948730,4251.153809,4278.077148,4247.563965,4294.487305,4251.282227,3249.000000,1.000000,15.000000,,,,0.000000,4.000000,4.000000,4.000000,4.000000,4.000000,4.000000,4.000000,4.000000,4.000000,4.000000,4.000000,4.000000,4.000000,4.000000,100.000000,,,,,,,,,,,,,,,,,,,,,,,,,,,,
1649269461.039470,1649269461.066814,80.000000,0.000000,4233.974121,4215.256348,4241.538574,4234.102539,4237.307617,4230.769043,4248.077148,4265.512695,4246.794922,4254.230957,4278.589844,4246.794922,4295.769043,4259.487305,3204.000000,1.000000,15.000000,,,,0.000000,4.000000,4.000000,4.000000,4.000000,4.000000,4.000000,4.000000,4.000000,4.000000,4.000000,4.000000,4.000000,4.000000,4.000000,100.000000,,,,,,,,,,,,,,,,,20.000000,0.000000,0.211373,-0.681580,0.134277,-0.687561,0.889662,-0.478035,0.033204,-33.496605,-112.751968,-5.981536
1649269461.047297,1649269461.074640,81.000000,0.000000,4228.846191,4206.538574,4234.102539,4231.282227,4254.102539,4229.230957,4239.871582,4252.820313,4232.051270,4243.974121,4262.563965,4245.641113,4281.153809,4250.512695,3195.000000,1.000000,15.000000,,,,0.000000,4.000000,4.000000,4.000000,4.000000,4.000000,4.000000,4.000000,4.000000,4.000000,4.000000,4.000000,4.000000,4.000000,4.000000,100.000000,,,,,,,,,,,,,,,,,,,,,,,,,,,,
1649269461.055123,1649269461.082365,82.000000,0.000000,4238.077148,4211.282227,4237.948730,4239.102539,4247.948730,4228.589844,4237.948730,4252.436035,4230.769043,4237.820313,4260.384766,4248.205078,4277.051270,4250.897461,3183.000000,1.000000,15.000000,,,,0.000000,4.000000,4.000000,4.000000,4.000000,4.000000,4.000000,4.000000,4.000000,4.000000,4.000000,4.000000,4.000000,4.000000,4.000000,100.000000,,,,,,,,,,,,,,,,,,,,,,,,,,,,
1649269461.062949,1649269461.090191,83.000000,0.000000,4248.717773,4222.563965,4251.153809,4248.974121,4231.922852,4231.410156,4243.717773,4266.025879,4248.077148,4247.692383,4272.563965,4253.333496,4289.487305,4263.077148,3249.000000,1.000000,15.000000,,,,0.000000,4.000000,4.000000,4.000000,4.000000,4.000000,4.000000,4.000000,4.000000,4.000000,4.000000,4.000000,4.000000,4.000000,4.000000,100.000000,,,,,,,,,,,,,,,,,,,,,,,,,,,,
1649269461.070775,1649269461.097917,84.000000,0.000000,4246.410156,4224.230957,4245.769043,4244.358887,4241.025879,4232.307617,4243.333496,4267.051270,4251.410156,4258.717773,4276.410156,4250.769043,4294.487305,4256.025879,3204.000000,1.000000,15.000000,,,,0.000000,4.000000,4.000000,4.000000,4.000000,4.000000,4.000000,4.000000,4.000000,4.000000,4.000000,4.000000,4.000000,4.000000,4.000000,100.000000,,,,,,,,,,,,,,,,,21.000000,0.000000,0.210817,-0.681641,0.134216,-0.687683,0.886244,-0.484871,0.030762,-32.748913,-112.303352,-5.682460
1649269461.078602,1649269461.105742,85.000000,0.000000,4244.743652,4228.846191,4239.743652,4242.692383,4248.205078,4232.307617,4245.769043,4262.948730,4243.205078,4257.948730,4278.846191,4248.077148,4293.077148,4244.871582,3195.000000,1.000000,15.000000,,,,0.000000,4.000000,4.000000,4.000000,4.000000,4.000000,4.000000,4.000000,4.000000,4.000000,4.000000,4.000000,4.000000,4.000000,4.000000,100.000000,0.976563,66.666664,4.000000,3.000000,4.000000,4.000000,4.000000,4.000000,4.000000,4.000000,4.000000,4.000000,4.000000,4.000000,1.000000,4.000000,,,,,,,,,,,,
1649269461.086428,1649269461.113468,86.000000,0.000000,4251.410156,4236.794922,4247.820313,4248.461426,4237.692383,4232.051270,4247.563965,4264.487305,4249.358887,4253.461426,4279.871582,4255.769043,4295.000000,4254.230957,3183.000000,1.000000,15.000000,,,,0.000000,4.000000,4.000000,4.000000,4.000000,4.000000,4.000000,4.000000,4.000000,4.000000,4.000000,4.000000,4.000000,4.000000,4.000000,100.000000,,,,,,,,,,,,,,,,,,,,,,,,,,,,
1649269461.094254,1649269461.121194,87.000000,0.000000,4250.384766,4229.230957,4247.948730,4243.205078,4235.000000,4230.769043,4235.641113,4254.615234,4248.846191,4249.102539,4268.461426,4257.692383,4289.102539,4260.769043,3249.000000,1.000000,15.000000,,,,0.000000,4.000000,4.000000,4.000000,4.000000,4.000000,4.000000,4.000000,4.000000,4.000000,4.000000,4.000000,4.000000,4.000000,4.000000,100.000000,,,,,,,,,,,,,,,,,,,,,,,,,,,,
1649269461.102080,1649269461.129019,88.000000,0.000000,4244.102539,4220.128418,4244.615234,4231.025879,4241.410156,4230.384766,4229.615234,4244.230957,4239.487305,4249.487305,4265.897461,4247.692383,4282.436035,4258.205078,3204.000000,1.000000,15.000000,,,,0.000000,4.000000,4.000000,4.000000,4.000000,4.000000,4.000000,4.000000,4.000000,4.000000,4.000000,4.000000,4.000000,4.000000,4.000000,100.000000,,,,,,,,,,,,,,,,,22.000000,0.000000,0.210976,-0.681580,0.134277,-0.687683,0.876478,-0.472663,0.040040,-31.702145,-112.153809,-6.131075
1649269461.109907,1649269461.136745,89.000000,0.000000,4247.179688,4226.922852,4246.922852,4233.461426,4242.948730,4230.128418,4241.025879,4254.230957,4242.179688,4249.358887,4274.743652,4248.077148,4289.871582,4261.538574,3195.000000,1.000000,15.000000,,,,0.000000,4.000000,4.000000,4.000000,4.000000,4.000000,4.000000,4.000000,4.000000,4.000000,4.000000,4.000000,4.000000,4.000000,4.000000,100.000000,,,,,,,,,,,,,,,,,,,,,,,,,,,,
1649269461.117733,1649269461.144571,90.000000,0.000000,4252.948730,4235.769043,4249.102539,4241.538574,4246.794922,4230.000000,4246.922852,4260.128418,4247.820313,4245.128418,4270.897461,4260.128418,4295.897461,4267.563965,3183.000000,1.000000,15.000000,,,,0.000000,4.000000,4.000000,4.000000,4.000000,4.000000,4.000000,4.000000,4.000000,4.000000,4.000000,4.000000,4.000000,4.000000,4.000000,100.000000,,,,,,,,,,,,,,,,,,,,,,,,,,,,
1649269461.125559,1649269461.152296,91.000000,0.000000,4251.410156,4230.897461,4248.461426,4238.205078,4253.333496,4229.487305,4238.077148,4254.743652,4248.077148,4251.282227,4266.025879,4258.077148,4293.077148,4268.461426,3249.000000,1.000000,15.000000,,,,0.000000,4.000000,4.000000,4.000000,4.000000,4.000000,4.000000,4.000000,4.000000,4.000000,4.000000,4.000000,4.000000,4.000000,4.000000,100.000000,,,,,,,,,,,,,,,,,,,,,,,,,,,,
1649269461.133386,1649269461.160122,92.000000,0.000000,4247.051270,4223.846191,4248.846191,4230.000000,4246.794922,4229.102539,4232.563965,4259.615234,4248.717773,4261.282227,4276.666504,4246.025879,4293.717773,4264.230957,3204.000000,1.000000,15.000000,,,,0.000000,4.000000,4.000000,4.000000,4.000000,4.000000,4.000000,4.000000,4.000000,4.000000,4.000000,4.000000,4.000000,4.000000,4.000000,100.000000,,,,,,,,,,,,,,,,,23.000000,0.000000,0.211613,-0.681519,0.134521,-0.687500,0.896498,-0.466804,0.018067,-34.543373,-112.602425,-3.588922
1649269461.141212,1649269461.167848,93.000000,0.000000,4253.077148,4229.358887,4248.077148,4228.461426,4233.589844,4228.205078,4235.769043,4265.897461,4250.769043,4256.153809,4282.692383,4248.589844,4298.589844,4269.487305,3195.000000,1.000000,15.000000,,,,0.000000,4.000000,4.000000,4.000000,4.000000,4.000000,4.000000,4.000000,4.000000,4.000000,4.000000,4.000000,4.000000,4.000000,4.000000,100.000000,,,,,,,,,,,,,,,,,,,,,,,,,,,,
1649269461.149038,1649269461.175673,94.000000,0.000000,4261.922852,4237.436035,4248.717773,4234.230957,4228.974121,4226.538574,4237.051270,4258.589844,4248.205078,4245.000000,4275.769043,4258.974121,4298.333496,4280.384766,3183.000000,1.000000,15.000000,,,,0.000000,4.000000,4.000000,4.000000,4.000000,4.000000,4.000000,4.000000,4.000000,4.000000,4.000000,4.000000,4.000000,4.000000,4.000000,100.000000,,,,,,,,,,,,,,,,,,,,,,,,,,,,
1649269461.156865,1649269461.183399,95.000000,0.000000,4263.846191,4243.974121,4255.769043,4242.948730,4239.615234,4228.333496,4236.153809,4255.384766,4244.230957,4248.589844,4276.922852,4260.384766,4297.948730,4279.615234,3249.000000,1.000000,15.000000,,,,0.000000,4.000000,4.000000,4.000000,4.000000,4.000000,4.000000,4.000000,4.000000,4.000000,4.000000,4.000000,4.000000,4.000000,4.000000,100.000000,,,,,,,,,,,,,,,,,,,,,,,,,,,,
1649269461.164691,1649269461.191225,96.000000,0.000000,4267.692383,4249.102539,4262.692383,4250.897461,4251.282227,4233.974121,4236.410156,4263.846191,4250.512695,4261.794922,4292.179688,4262.563965,4307.051270,4282.563965,3204.000000,1.000000,15.000000,,,,0.000000,4.000000,4.000000,4.000000,4.000000,4.000000,4.000000,4.000000,4.000000,4.000000,4.000000,4.000000,4.000000,4.000000,4.000000,100.000000,,,,,,,,,,,,,,,,,24.000000,0.000000,0.212610,-0.681519,0.135132,-0.687073,0.888685,-0.477058,0.043458,-34.094757,-111.854736,-4.635691
1649269461.172517,1649269461.198950,97.000000,0.000000,4264.230957,4235.384766,4260.256348,4244.487305,4240.641113,4234.871582,4240.128418,4266.666504,4257.692383,4264.102539,4295.384766,4265.897461,4298.974121,4284.487305,3195.000000,1.000000,15.000000,,,,0.000000,4.000000,4.000000,4.000000,4.000000,4.000000,4.000000,4.000000,4.000000,4.000000,4.000000,4.000000,4.000000,4.000000,4.000000,100.000000,,,,,,,,,,,,,,,,,,,,,,,,,,,,
1649269461.180343,1649269461.206776,98.000000,0.000000,4256.666504,4221.794922,4249.871582,4231.282227,4229.102539,4230.769043,4244.743652,4260.384766,4253.077148,4254.871582,4281.666504,4255.897461,4283.974121,4267.436035,3183.000000,1.000000,15.000000,,,,0.000000,4.000000,4.000000,4.000000,4.000000,4.000000,4.000000,4.000000,4.000000,4.000000,4.000000,4.000000,4.000000,4.000000,4.000000,100.000000,,,,,,,,,,,,,,,,,,,,,,,,,,,,
1649269461.188170,1649269461.214502,99.000000,0.000000,4262.179688,4233.717773,4246.410156,4236.025879,4242.436035,4230.897461,4245.512695,4256.922852,4246.794922,4248.077148,4278.717773,4252.307617,4297.820313,4265.384766,3249.000000,1.000000,15.000000,,,,0.000000,4.000000,4.000000,4.000000,4.000000,4.000000,4.000000,4.000000,4.000000,4.000000,4.000000,4.000000,4.000000,4.000000,4.000000,100.000000,,,,,,,,,,,,,,,,,,,,,,,,,,,,
1649269461.195996,1649269461.222327,100.000000,0.000000,4262.692383,4237.948730,4250.769043,4241.794922,4250.897461,4229.358887,4240.128418,4255.897461,4248.589844,4247.948730,4284.615234,4260.128418,4310.128418,4280.000000,3204.000000,1.000000,15.000000,,,,0.000000,4.000000,4.000000,4.000000,4.000000,4.000000,4.000000,4.000000,4.000000,4.000000,4.000000,4.000000,4.000000,4.000000,4.000000,100.000000,,,,,,,,,,,,,,,,,25.000000,0.000000,0.213250,-0.681641,0.135986,-0.686584,0.894545,-0.484871,0.035645,-33.347065,-112.901505,-4.635691
1649269461.203822,1649269461.230053,101.000000,0.000000,4247.436035,4217.436035,4248.077148,4229.871582,4233.846191,4221.025879,4235.512695,4251.666504,4246.282227,4248.717773,4277.179688,4256.282227,4295.000000,4270.641113,3195.000000,1.000000,15.000000,,,,0.000000,4.000000,4.000000,4.000000,4.000000,4.000000,4.000000,4.000000,4.000000,4.000000,4.000000,4.000000,4.000000,4.000000,4.000000,100.000000,,,,,,,,,,,,,,,,,,,,,,,,,,,,
1649269461.211648,1649269461.237879,102.000000,0.000000,4241.282227,4211.922852,4242.692383,4218.333496,4225.512695,4220.384766,4233.333496,4248.846191,4242.820313,4247.948730,4268.846191,4245.897461,4281.025879,4254.615234,3183.000000,1.000000,15.000000,,,,0.000000,4.000000,4.000000,4.000000,4.000000,4.000000,4.000000,4.000000,4.000000,4.000000,4.000000,4.000000,4.000000,4.000000,4.000000,100.000000,,,,,,,,,,,,,,,,,,,,,,,,,,,,
1649269461.219475,1649269461.245604,103.000000,0.000000,4245.897461,4226.538574,4246.153809,4220.512695,4232.692383,4229.102539,4231.922852,4251.282227,4246.922852,4248.846191,4275.000000,4246.282227,4285.512695,4262.436035,3249.000000,1.000000,15.000000,,,,0.000000,4.000000,4.000000,4.000000,4.000000,4.000000,4.000000,4.000000,4.000000,4.000000,4.000000,4.000000,4.000000,4.000000,4.000000,100.000000,,,,,,,,,,,,,,,,,,,,,,,,,,,,
1649269461.227301,1649269461.253430,104.000000,0.000000,4246.153809,4228.846191,4251.922852,4229.358887,4232.948730,4231.538574,4238.846191,4256.025879,4250.000000,4253.205078,4278.589844,4251.153809,4291.025879,4268.717773,3204.000000,1.000000,15.000000,,,,0.000000,4.000000,4.000000,4.000000,4.000000,4.000000,4.000000,4.000000,4.000000,4.000000,4.000000,4.000000,4.000000,4.000000,4.000000,100.000000,,,,,,,,,,,,,,,,,26.000000,0.000000,0.213527,-0.681580,0.137085,-0.686340,0.894057,-0.493172,0.029786,-33.945221,-110.957504,-4.934768
1649269461.235127,1649269461.261156,105.000000,0.000000,4249.230957,4222.436035,4250.000000,4233.974121,4231.794922,4229.230957,4248.461426,4260.256348,4250.769043,4256.794922,4272.179688,4251.410156,4288.333496,4260.000000,3195.000000,1.000000,15.000000,,,,0.000000,4.000000,4.000000,4.000000,4.000000,4.000000,4.000000,4.000000,4.000000,4.000000,4.000000,4.000000,4.000000,4.000000,4.000000,100.000000,,,,,,,,,,,,,,,,,,,,,,,,,,,,
1649269461.242953,1649269461.268981,106.000000,0.000000,4245.256348,4217.307617,4245.000000,4223.589844,4235.897461,4230.000000,4246.794922,4259.230957,4248.461426,4251.666504,4264.487305,4248.077148,4279.743652,4255.000000,3183.000000,1.000000,15.000000,,,,0.000000,4.000000,4.000000,4.000000,4.000000,4.000000,4.000000,4.000000,4.000000,4.000000,4.000000,4.000000,4.000000,4.000000,4.000000,100.000000,,,,,,,,,,,,,,,,,,,,,,,,,,,,
1649269461.250780,1649269461.276707,107.000000,0.000000,4235.128418,4214.358887,4247.179688,4214.615234,4236.666504,4229.358887,4240.256348,4253.077148,4239.615234,4239.615234,4259.487305,4246.282227,4277.307617,4256.282227,3249.000000,1.000000,15.000000,,,,0.000000,4.000000,4.000000,4.000000,4.000000,4.000000,4.000000,4.000000,4.000000,4.000000,4.000000,4.000000,4.000000,4.000000,4.000000,100.000000,,,,,,,,,,,,,,,,,,,,,,,,,,,,
1649269461.258606,1649269461.284533,108.000000,0.000000,4240.000000,4217.563965,4251.410156,4223.077148,4235.256348,4228.589844,4242.179688,4250.512695,4232.436035,4235.000000,4258.717773,4251.025879,4277.179688,4257.820313,3204.000000,1.000000,15.000000,,,,0.000000,4.000000,4.000000,4.000000,4.000000,4.000000,4.000000,4.000000,4.000000,4.000000,4.000000,4.000000,4.000000,4.000000,4.000000,100.000000,,,,,,,,,,,,,,,,,27.000000,0.000000,0.213293,-0.681641,0.137451,-0.686279,0.889174,-0.489754,0.021973,-34.543373,-112.602425,-6.131075
1649269461.266432,1649269461.292258,109.000000,0.000000,4239.230957,4215.512695,4241.538574,4222.948730,4232.051270,4229.615234,4240.641113,4248.974121,4232.179688,4241.538574,4258.974121,4245.641113,4264.487305,4247.692383,3195.000000,1.000000,15.000000,,,,0.000000,4.000000,4.000000,4.000000,4.000000,4.000000,4.000000,4.000000,4.000000,4.000000,4.000000,4.000000,4.000000,4.000000,4.000000,100.000000,,,,,,,,,,,,,,,,,,,,,,,,,,,,
1649269461.274259,1649269461.300084,110.000000,0.000000,4233.461426,4213.077148,4230.641113,4214.358887,4229.871582,4229.615234,4232.307617,4245.128418,4239.230957,4249.743652,4261.666504,4236.922852,4271.410156,4244.487305,3183.000000,1.000000,15.000000,,,,0.000000,4.000000,4.000000,4.000000,4.000000,4.000000,4.000000,4.000000,4.000000,4.000000,4.000000,4.000000,4.000000,4.000000,4.000000,100.000000,,,,,,,,,,,,,,,,,,,,,,,,,,,,
1649269461.282085,1649269461.307810,111.000000,0.000000,4242.307617,4216.794922,4238.333496,4220.256348,4233.589844,4230.128418,4234.615234,4247.307617,4245.256348,4249.230957,4263.846191,4243.846191,4285.256348,4256.153809,3249.000000,1.000000,15.000000,,,,0.000000,4.000000,4.000000,4.000000,4.000000,4.000000,4.000000,4.000000,4.000000,4.000000,4.000000,4.000000,4.000000,4.000000,4.000000,100.000000,,,,,,,,,,,,,,,,,,,,,,,,,,,,
1649269461.289911,1649269461.315535,112.000000,0.000000,4243.333496,4213.333496,4246.666504,4229.487305,4232.051270,4232.436035,4237.948730,4249.743652,4243.717773,4245.897461,4259.871582,4249.487305,4270.769043,4253.205078,3204.000000,1.000000,15.000000,,,,0.000000,4.000000,4.000000,4.000000,4.000000,4.000000,4.000000,4.000000,4.000000,4.000000,4.000000,4.000000,4.000000,4.000000,4.000000,100.000000,,,,,,,,,,,,,,,,,28.000000,0.000000,0.212741,-0.681580,0.137695,-0.686462,0.880385,-0.475105,0.023926,-32.898453,-112.901505,-5.084306
1649269461.297737,1649269461.323361,113.000000,0.000000,4237.436035,4218.333496,4246.410156,4235.769043,4229.230957,4232.436035,4233.589844,4247.563965,4245.512695,4244.358887,4264.743652,4245.512695,4268.974121,4248.461426,3195.000000,1.000000,15.000000,,,,0.000000,4.000000,4.000000,4.000000,4.000000,4.000000,4.000000,4.000000,4.000000,4.000000,4.000000,4.000000,4.000000,4.000000,4.000000,100.000000,,,,,,,,,,,,,,,,,,,,,,,,,,,,
1649269461.305564,1649269461.331187,114.000000,0.000000,4231.922852,4219.487305,4243.077148,4226.666504,4230.000000,4232.179688,4237.563965,4247.948730,4248.974121,4241.538574,4268.589844,4245.000000,4270.256348,4249.230957,3183.000000,1.000000,15.000000,,,,0.000000,4.000000,4.000000,4.000000,4.000000,4.000000,4.000000,4.000000,4.000000,4.000000,4.000000,4.000000,4.000000,4.000000,4.000000,100.000000,,,,,,,,,,,,,,,,,,,,,,,,,,,,
1649269461.313390,1649269461.338912,115.000000,0.000000,4218.461426,4197.692383,4237.948730,4205.769043,4229.871582,4233.717773,4248.205078,4251.410156,4241.794922,4245.128418,4255.256348,4247.820313,4231.282227,4234.358887,3249.000000,1.000000,15.000000,,,,0.000000,4.000000,4.000000,4.000000,4.000000,4.000000,4.000000,4.000000,4.000000,4.000000,4.000000,4.000000,4.000000,4.000000,4.000000,100.000000,,,,,,,,,,,,,,,,,,,,,,,,,,,,
1649269461.321216,1649269461.346638,116.000000,0.000000,4223.333496,4211.666504,4241.025879,4218.333496,4237.307617,4233.333496,4249.102539,4250.000000,4234.230957,4249.230957,4247.820313,4248.974121,4204.743652,4231.025879,3204.000000,1.000000,15.000000,,,,0.000000,4.000000,4.000000,4.000000,4.000000,4.000000,4.000000,4.000000,4.000000,4.000000,4.000000,4.000000,4.000000,4.000000,4.000000,100.000000,,,,,,,,,,,,,,,,,29.000000,0.000000,0.212506,-0.681641,0.137451,-0.686523,0.894545,-0.490730,0.031739,-34.094757,-111.854736,-5.084306
1649269461.329042,1649269461.354464,117.000000,0.000000,4248.077148,4277.307617,4248.077148,4255.256348,4243.461426,4231.025879,4244.487305,4246.410156,4235.000000,4239.230957,4248.589844,4247.179688,4201.666504,4256.282227,3195.000000,1.000000,15.000000,,,,0.000000,4.000000,4.000000,4.000000,4.000000,4.000000,4.000000,4.000000,4.000000,4.000000,4.000000,4.000000,4.000000,4.000000,4.000000,100.000000,,,,,,,,,,,,,,,,,,,,,,,,,,,,
1649269461.336869,1649269461.362189,118.000000,0.000000,4250.384766,4328.333496,4249.615234,4270.256348,4232.179688,4231.666504,4243.846191,4248.461426,4233.461426,4227.948730,4228.589844,4242.692383,4152.179688,4267.307617,3183.000000,1.000000,15.000000,,,,0.000000,4.000000,4.000000,4.000000,4.000000,4.000000,4.000000,4.000000,4.000000,4.000000,4.000000,4.000000,4.000000,4.000000,4.000000,100.000000,,,,,,,,,,,,,,,,,,,,,,,,,,,,
1649269461.344695,1649269461.370015,119.000000,0.000000,4246.410156,4362.692383,4256.538574,4277.692383,4232.820313,4233.717773,4245.641113,4251.794922,4231.282227,4229.230957,4199.743652,4244.487305,4076.794922,4260.512695,3249.000000,1.000000,15.000000,,,,0.000000,4.000000,4.000000,4.000000,4.000000,4.000000,4.000000,4.000000,4.000000,4.000000,4.000000,4.000000,4.000000,4.000000,4.000000,100.000000,,,,,,,,,,,,,,,,,,,,,,,,,,,,
1649269461.352521,1649269461.377741,120.000000,0.000000,4262.179688,4419.102539,4268.846191,4301.025879,4258.333496,4232.820313,4245.128418,4249.871582,4231.666504,4226.922852,4188.333496,4246.025879,4040.128174,4267.948730,3204.000000,1.000000,15.000000,,,,0.000000,4.000000,4.000000,4.000000,4.000000,4.000000,4.000000,4.000000,4.000000,4.000000,4.000000,4.000000,4.000000,4.000000,4.000000,100.000000,,,,,,,,,,,,,,,,,30.000000,0.000000,0.213214,-0.681641,0.136963,-0.686401,0.886244,-0.483406,0.041505,-33.646145,-112.901505,-5.084306
1649269461.360347,1649269461.385566,121.000000,0.000000,4267.692383,4469.871582,4265.384766,4313.974121,4268.461426,4229.743652,4243.846191,4244.487305,4228.333496,4216.410156,4174.871582,4235.641113,4010.384521,4273.589844,3195.000000,1.000000,15.000000,,,,0.000000,4.000000,4.000000,4.000000,4.000000,4.000000,4.000000,4.000000,4.000000,4.000000,4.000000,4.000000,4.000000,4.000000,4.000000,100.000000,,,,,,,,,,,,,,,,,,,,,,,,,,,,
1649269461.368174,1649269461.393292,122.000000,0.000000,4258.974121,4487.179688,4254.615234,4313.205078,4262.563965,4233.333496,4245.512695,4243.589844,4226.794922,4213.974121,4151.025879,4226.922852,3964.615479,4263.717773,3183.000000,1.000000,15.000000,,,,0.000000,4.000000,4.000000,4.000000,4.000000,4.000000,4.000000,4.000000,4.000000,4.000000,4.000000,4.000000,4.000000,4.000000,4.000000,100.000000,,,,,,,,,,,,,,,,,,,,,,,,,,,,
1649269461.376000,1649269461.401118,123.000000,0.000000,4256.794922,4481.410156,4250.128418,4312.307617,4266.922852,4240.769043,4248.589844,4250.897461,4232.692383,4227.051270,4149.102539,4228.846191,3949.871826,4256.282227,3249.000000,1.000000,15.000000,,,,0.000000,4.000000,4.000000,4.000000,4.000000,4.000000,4.000000,4.000000,4.000000,4.000000,4.000000,4.000000,4.000000,4.000000,4.000000,100.000000,,,,,,,,,,,,,,,,,,,,,,,,,,,,
1649269461.383826,1649269461.408843,124.000000,0.000000,4258.205078,4466.282227,4250.000000,4305.897461,4267.051270,4240.512695,4249.743652,4256.538574,4237.436035,4235.512695,4164.615234,4233.205078,3967.948730,4259.487305,3204.000000,1.000000,15.000000,,,,0.000000,4.000000,4.000000,4.000000,4.000000,4.000000,4.000000,4.000000,4.000000,4.000000,4.000000,4.000000,4.000000,4.000000,4.000000,100.000000,,,,,,,,,,,,,,,,,31.000000,0.000000,0.214236,-0.681824,0.136597,-0.685974,0.886244,-0.492195,0.034668,-32.748913,-114.247345,-5.233844
1649269461.391652,1649269461.416669,125.000000,0.000000,4259.102539,4462.436035,4256.025879,4300.512695,4260.000000,4234.871582,4250.897461,4254.743652,4235.384766,4225.641113,4166.922852,4234.102539,3978.846191,4264.487305,3195.000000,1.000000,15.000000,,,,0.000000,4.000000,4.000000,4.000000,4.000000,4.000000,4.000000,4.000000,4.000000,4.000000,4.000000,4.000000,4.000000,4.000000,4.000000,100.000000,,,,,,,,,,,,,,,,,,,,,,,,,,,,
1649269461.399479,1649269461.424395,126.000000,0.000000,4252.179688,4457.692383,4256.666504,4295.512695,4262.948730,4232.820313,4249.615234,4247.692383,4226.153809,4214.358887,4153.333496,4230.512695,3970.000000,4255.256348,3183.000000,1.000000,15.000000,,,,0.000000,4.000000,4.000000,4.000000,4.000000,4.000000,4.000000,4.000000,4.000000,4.000000,4.000000,4.000000,4.000000,4.000000,4.000000,100.000000,,,,,,,,,,,,,,,,,,,,,,,,,,,,
1649269461.407305,1649269461.432120,127.000000,0.000000,4246.666504,4447.563965,4251.025879,4294.871582,4264.358887,4233.461426,4248.717773,4246.794922,4223.077148,4216.666504,4149.743652,4230.000000,3969.743652,4245.769043,52.000000,1.000000,15.000000,,,,0.000000,4.000000,4.000000,4.000000,4.000000,4.000000,4.000000,4.000000,4.000000,4.000000,4.000000,4.000000,4.000000,4.000000,4.000000,100.000000,,,,,,,,,,,,,,,,,,,,,,,,,,,,
1649269461.415131,1649269461.439946,0.000000,0.000000,4249.615234,4441.410156,4249.358887,4295.769043,4253.205078,4233.077148,4249.871582,4256.153809,4228.077148,4219.615234,4155.128418,4233.846191,3980.512939,4247.820313,2777.000000,1.000000,15.000000,,,,0.000000,4.000000,4.000000,4.000000,4.000000,4.000000,4.000000,4.000000,4.000000,4.000000,4.000000,4.000000,4.000000,4.000000,4.000000,100.000000,,,,,,,,,,,,,,,,,0.000000,0.000000,0.215292,-0.682007,0.136475,-0.685486,0.875013,-0.496101,0.043458,-33.945221,-112.751968,-4.934768
1649269461.422958,1649269461.447772,1.000000,0.000000,4247.563965,4433.461426,4248.461426,4287.307617,4242.179688,4231.922852,4250.256348,4264.615234,4232.307617,4219.102539,4153.589844,4231.538574,3985.000000,4247.948730,3214.000000,1.000000,15.000000,,,,0.000000,4.000000,4.000000,4.000000,4.000000,4.000000,4.000000,4.000000,4.000000,4.000000,4.000000,4.000000,4.000000,4.000000,4.000000,100.000000,,,,,,,,,,,,,,,,,,,,,,,,,,,,
1649269461.430784,1649269461.455497,2.000000,0.000000,4240.769043,4425.897461,4245.897461,4277.307617,4246.538574,4231.538574,4252.307617,4262.692383,4231.794922,4218.461426,4149.615234,4225.897461,3987.307617,4242.948730,3273.000000,1.000000,15.000000,,,,0.000000,4.000000,4.000000,4.000000,4.000000,4.000000,4.000000,4.000000,4.000000,4.000000,4.000000,4.000000,4.000000,4.000000,4.000000,100.000000,,,,,,,,,,,,,,,,,,,,,,,,,,,,
1649269461.438610,1649269461.463223,3.000000,0.000000,4241.410156,4427.179688,4243.717773,4278.333496,4262.179688,4232.563965,4255.128418,4256.025879,4223.333496,4210.897461,4145.000000,4222.179688,3990.512939,4240.641113,2809.000000,1.000000,15.000000,,,,0.000000,4.000000,4.000000,4.000000,4.000000,4.000000,4.000000,4.000000,4.000000,4.000000,4.000000,4.000000,4.000000,4.000000,4.000000,100.000000,,,,,,,,,,,,,,,,,,,,,,,,,,,,
1649269461.446436,1649269461.471049,4.000000,0.000000,4242.307617,4430.128418,4239.615234,4283.589844,4262.948730,4233.846191,4251.282227,4250.897461,4214.871582,4207.436035,4140.769043,4214.743652,3989.615479,4238.717773,3326.000000,1.000000,15.000000,,,,0.000000,4.000000,4.000000,4.000000,4.000000,4.000000,4.000000,4.000000,4.000000,4.000000,4.000000,4.000000,4.000000,4.000000,4.000000,100.000000,,,,,,,,,,,,,,,,,1.000000,0.000000,0.215724,-0.682312,0.136719,-0.684998,0.885756,-0.496101,0.033204,-34.842449,-113.350121,-5.084306
1649269461.454263,1649269461.478874,5.000000,0.000000,4236.794922,4422.563965,4233.205078,4280.769043,4248.974121,4231.153809,4247.179688,4247.307617,4220.384766,4214.102539,4144.358887,4211.025879,3989.102539,4234.743652,3067.000000,1.000000,15.000000,,,,0.000000,4.000000,4.000000,4.000000,4.000000,4.000000,4.000000,4.000000,4.000000,4.000000,4.000000,4.000000,4.000000,4.000000,4.000000,100.000000,,,,,,,,,,,,,,,,,,,,,,,,,,,,
1649269461.462089,1649269461.486600,6.000000,0.000000,4232.692383,4412.820313,4232.307617,4276.153809,4245.256348,4229.230957,4247.051270,4247.563965,4229.230957,4218.717773,4151.794922,4214.743652,3997.820557,4234.487305,3299.000000,1.000000,15.000000,,,,0.000000,4.000000,4.000000,4.000000,4.000000,4.000000,4.000000,4.000000,4.000000,4.000000,4.000000,4.000000,4.000000,4.000000,4.000000,100.000000,,,,,,,,,,,,,,,,,,,,,,,,,,,,
1649269461.469915,1649269461.494326,7.000000,0.000000,4233.461426,4410.769043,4231.538574,4277.948730,4260.000000,4229.871582,4240.769043,4244.230957,4221.922852,4216.922852,4155.000000,4216.666504,4006.923096,4235.128418,3217.000000,1.000000,15.000000,,,,0.000000,4.000000,4.000000,4.000000,4.000000,4.000000,4.000000,4.000000,4.000000,4.000000,4.000000,4.000000,4.000000,4.000000,4.000000,100.000000,,,,,,,,,,,,,,,,,,,,,,,,,,,,
1649269461.477741,1649269461.502151,8.000000,0.000000,4233.974121,4414.230957,4230.384766,4281.666504,4263.846191,4229.230957,4231.282227,4233.461426,4213.333496,4212.179688,4154.358887,4217.051270,4004.102539,4233.974121,4172.000000,1.000000,15.000000,,,,0.000000,4.000000,4.000000,4.000000,4.000000,4.000000,4.000000,4.000000,4.000000,4.000000,4.000000,4.000000,4.000000,4.000000,4.000000,100.000000,,,,,,,,,,,,,,,,,2.000000,0.000000,0.215533,-0.682617,0.137024,-0.684692,0.878920,-0.472175,0.027832,-34.842449,-111.406120,-4.336614
1649269461.485568,1649269461.509877,9.000000,0.000000,4233.974121,4411.538574,4235.769043,4281.922852,4250.641113,4229.743652,4230.384766,4230.128418,4217.436035,4210.769043,4153.205078,4217.051270,4003.076904,4238.974121,3266.000000,1.000000,15.000000,,,,0.000000,4.000000,4.000000,4.000000,4.000000,4.000000,4.000000,4.000000,4.000000,4.000000,4.000000,4.000000,4.000000,4.000000,4.000000,100.000000,,,,,,,,,,,,,,,,,,,,,,,,,,,,
1649269461.493394,1649269461.517703,10.000000,0.000000,4241.794922,4408.846191,4244.487305,4282.820313,4253.205078,4232.179688,4239.487305,4237.820313,4222.820313,4210.000000,4158.205078,4220.384766,4019.871826,4250.256348,3210.000000,1.000000,15.000000,,,,0.000000,4.000000,4.000000,4.000000,4.000000,4.000000,4.000000,4.000000,4.000000,4.000000,4.000000,4.000000,4.000000,4.000000,4.000000,100.000000,,,,,,,,,,,,,,,,,,,,,,,,,,,,
1649269461.501220,1649269461.525428,11.000000,0.000000,4249.487305,4412.692383,4247.563965,4285.128418,4270.769043,4232.307617,4247.820313,4248.974121,4228.333496,4216.794922,4166.538574,4229.358887,4027.692383,4253.461426,3249.000000,1.000000,15.000000,,,,0.000000,4.000000,4.000000,4.000000,4.000000,4.000000,4.000000,4.000000,4.000000,4.000000,4.000000,4.000000,4.000000,4.000000,4.000000,100.000000,,,,,,,,,,,,,,,,,,,,,,,,,,,,
1649269461.509046,1649269461.533254,12.000000,0.000000,4246.922852,4408.846191,4246.025879,4281.666504,4267.692383,4229.487305,4246.922852,4256.025879,4232.563965,4227.179688,4169.102539,4231.410156,4019.230713,4249.358887,3214.000000,1.000000,15.000000,,,,0.000000,4.000000,4.000000,4.000000,4.000000,4.000000,4.000000,4.000000,4.000000,4.000000,4.000000,4.000000,4.000000,4.000000,4.000000,100.000000,,,,,,,,,,,,,,,,,3.000000,0.000000,0.215226,-0.682983,0.136902,-0.684448,0.878431,-0.489265,0.015137,-34.244297,-112.303352,-5.682460
1649269461.516873,1649269461.540980,13.000000,0.000000,4244.102539,4400.000000,4247.436035,4277.436035,4249.871582,4229.102539,4244.487305,4256.025879,4233.717773,4226.025879,4168.205078,4228.333496,4023.974365,4250.256348,3197.000000,1.000000,15.000000,,,,0.000000,4.000000,4.000000,4.000000,4.000000,4.000000,4.000000,4.000000,4.000000,4.000000,4.000000,4.000000,4.000000,4.000000,4.000000,100.000000,,,,,,,,,,,,,,,,,,,,,,,,,,,,
1649269461.524699,1649269461.548805,14.000000,0.000000,4248.205078,4399.743652,4252.563965,4280.897461,4247.820313,4231.410156,4246.538574,4252.307617,4235.384766,4217.692383,4169.487305,4232.820313,4032.051270,4252.051270,3210.000000,1.000000,15.000000,,,,0.000000,4.000000,4.000000,4.000000,4.000000,4.000000,4.000000,4.000000,4.000000,4.000000,4.000000,4.000000,4.000000,4.000000,4.000000,100.000000,,,,,,,,,,,,,,,,,,,,,,,,,,,,
1649269461.532525,1649269461.556531,15.000000,0.000000,4249.615234,4400.769043,4253.333496,4284.230957,4256.794922,4230.641113,4246.922852,4249.743652,4231.666504,4218.589844,4171.025879,4232.436035,4025.897461,4249.358887,3249.000000,1.000000,15.000000,,,,0.000000,4.000000,4.000000,4.000000,4.000000,4.000000,4.000000,4.000000,4.000000,4.000000,4.000000,4.000000,4.000000,4.000000,4.000000,100.000000,,,,,,,,,,,,,,,,,,,,,,,,,,,,
1649269461.540352,1649269461.564357,16.000000,0.000000,4245.128418,4395.769043,4248.077148,4281.153809,4259.358887,4229.102539,4243.077148,4244.102539,4224.487305,4219.102539,4170.512695,4224.102539,4026.538574,4244.743652,0.000000,1.000000,15.000000,,,,0.000000,4.000000,4.000000,4.000000,4.000000,4.000000,4.000000,4.000000,4.000000,4.000000,4.000000,4.000000,4.000000,4.000000,4.000000,100.000000,,,,,,,,,,,,,,,,,4.000000,0.000000,0.215110,-0.683105,0.136780,-0.684387,0.891127,-0.483894,0.027832,-34.094757,-112.153809,-5.084306
1649269461.548178,1649269461.572082,17.000000,0.000000,4246.666504,4398.589844,4247.820313,4280.256348,4252.820313,4230.000000,4241.922852,4240.512695,4227.051270,4216.794922,4172.051270,4226.282227,4041.025635,4244.102539,0.000000,1.000000,15.000000,,,,0.000000,4.000000,4.000000,4.000000,4.000000,4.000000,4.000000,4.000000,4.000000,4.000000,4.000000,4.000000,4.000000,4.000000,4.000000,100.000000,,,,,,,,,,,,,,,,,,,,,,,,,,,,
1649269461.556004,1649269461.579908,18.000000,0.000000,4250.256348,4399.871582,4252.563965,4280.384766,4253.974121,4231.025879,4242.948730,4245.000000,4232.563965,4221.794922,4177.179688,4233.205078,4046.794922,4249.358887,0.000000,1.000000,15.000000,,,,0.000000,4.000000,4.000000,4.000000,4.000000,4.000000,4.000000,4.000000,4.000000,4.000000,4.000000,4.000000,4.000000,4.000000,4.000000,100.000000,,,,,,,,,,,,,,,,,,,,,,,,,,,,
1649269461.563831,1649269461.587634,19.000000,0.000000,4245.641113,4390.384766,4250.641113,4278.589844,4262.820313,4230.000000,4245.000000,4244.871582,4230.256348,4220.512695,4182.563965,4230.512695,4042.692383,4247.436035,0.000000,1.000000,15.000000,,,,0.000000,4.000000,4.000000,4.000000,4.000000,4.000000,4.000000,4.000000,4.000000,4.000000,4.000000,4.000000,4.000000,4.000000,4.000000,100.000000,,,,,,,,,,,,,,,,,,,,,,,,,,,,
1649269461.571657,1649269461.595459,20.000000,0.000000,4239.230957,4386.025879,4247.820313,4279.102539,4259.871582,4230.000000,4245.384766,4239.615234,4229.358887,4219.487305,4185.000000,4225.384766,4041.666748,4240.000000,0.000000,1.000000,15.000000,,,,0.000000,4.000000,4.000000,4.000000,4.000000,4.000000,4.000000,4.000000,4.000000,4.000000,4.000000,4.000000,4.000000,4.000000,4.000000,100.000000,,,,,,,,,,,,,,,,,5.000000,0.000000,0.215226,-0.683411,0.135986,-0.684204,0.887221,-0.472175,0.024903,-32.449837,-112.901505,-6.579690
1649269461.579483,1649269461.603185,21.000000,0.000000,4241.282227,4384.871582,4250.769043,4276.153809,4249.358887,4232.051270,4241.666504,4243.717773,4233.077148,4230.512695,4184.615234,4226.794922,4049.487061,4242.436035,0.000000,1.000000,15.000000,,,,0.000000,4.000000,4.000000,4.000000,4.000000,4.000000,4.000000,4.000000,4.000000,4.000000,4.000000,4.000000,4.000000,4.000000,4.000000,100.000000,0.976563,25.000000,4.000000,1.000000,4.000000,4.000000,4.000000,1.000000,4.000000,4.000000,4.000000,4.000000,4.000000,4.000000,1.000000,4.000000,,,,,,,,,,,,
1649269461.587309,1649269461.610911,22.000000,0.000000,4246.794922,4379.230957,4249.102539,4270.256348,4247.692383,4232.179688,4240.000000,4247.051270,4231.666504,4231.666504,4185.512695,4229.230957,4059.230713,4249.487305,0.000000,1.000000,15.000000,,,,0.000000,4.000000,4.000000,4.000000,4.000000,4.000000,4.000000,4.000000,4.000000,4.000000,4.000000,4.000000,4.000000,4.000000,4.000000,100.000000,,,,,,,,,,,,,,,,,,,,,,,,,,,,
1649269461.595136,1649269461.618736,23.000000,0.000000,4247.692383,4377.820313,4247.436035,4271.410156,4256.282227,4230.641113,4243.205078,4244.358887,4230.641113,4226.794922,4185.641113,4230.897461,4059.102539,4248.717773,0.000000,1.000000,15.000000,,,,0.000000,4.000000,4.000000,4.000000,4.000000,4.000000,4.000000,4.000000,4.000000,4.000000,4.000000,4.000000,4.000000,4.000000,4.000000,100.000000,,,,,,,,,,,,,,,,,,,,,,,,,,,,
1649269461.602962,1649269461.626562,24.000000,0.000000,4248.333496,4384.358887,4257.179688,4281.666504,4263.717773,4231.794922,4247.051270,4247.436035,4233.077148,4227.820313,4188.846191,4234.487305,4061.025635,4247.692383,0.000000,1.000000,15.000000,,,,0.000000,4.000000,4.000000,4.000000,4.000000,4.000000,4.000000,4.000000,4.000000,4.000000,4.000000,4.000000,4.000000,4.000000,4.000000,100.000000,,,,,,,,,,,,,,,,,6.000000,0.000000,0.215571,-0.683716,0.135132,-0.683960,0.874037,-0.493660,0.023438,-33.945221,-111.705193,-4.486153
1649269461.610788,1649269461.634288,25.000000,0.000000,4250.897461,4384.615234,4258.589844,4282.307617,4263.333496,4233.461426,4244.615234,4249.102539,4232.051270,4222.436035,4193.205078,4236.410156,4066.794922,4249.871582,0.000000,1.000000,15.000000,,,,0.000000,4.000000,4.000000,4.000000,4.000000,4.000000,4.000000,4.000000,4.000000,4.000000,4.000000,4.000000,4.000000,4.000000,4.000000,100.000000,,,,,,,,,,,,,,,,,,,,,,,,,,,,
1649269461.618614,1649269461.642013,26.000000,0.000000,4251.025879,4374.358887,4246.794922,4266.794922,4251.538574,4232.563965,4241.666504,4244.871582,4230.128418,4215.769043,4191.538574,4235.897461,4066.794922,4248.974121,0.000000,1.000000,15.000000,,,,0.000000,4.000000,4.000000,4.000000,4.000000,4.000000,4.000000,4.000000,4.000000,4.000000,4.000000,4.000000,4.000000,4.000000,4.000000,100.000000,,,,,,,,,,,,,,,,,,,,,,,,,,,,
1649269461.626441,1649269461.649839,27.000000,0.000000,4247.820313,4365.512695,4244.102539,4260.641113,4247.692383,4232.820313,4244.743652,4245.512695,4230.384766,4223.717773,4183.717773,4234.230957,4059.230713,4241.282227,0.000000,1.000000,15.000000,,,,0.000000,4.000000,4.000000,4.000000,4.000000,4.000000,4.000000,4.000000,4.000000,4.000000,4.000000,4.000000,4.000000,4.000000,4.000000,100.000000,,,,,,,,,,,,,,,,,,,,,,,,,,,,
1649269461.634267,1649269461.657565,28.000000,0.000000,4244.615234,4363.717773,4248.077148,4270.384766,4258.461426,4234.102539,4246.922852,4247.820313,4231.410156,4231.025879,4176.410156,4230.897461,4051.923096,4233.589844,0.000000,1.000000,15.000000,,,,0.000000,4.000000,4.000000,4.000000,4.000000,4.000000,4.000000,4.000000,4.000000,4.000000,4.000000,4.000000,4.000000,4.000000,4.000000,100.000000,,,,,,,,,,,,,,,,,7.000000,0.000000,0.215955,-0.683960,0.134827,-0.683655,0.884779,-0.496590,0.031739,-33.646145,-112.901505,-5.084306
1649269461.642093,1649269461.665390,29.000000,0.000000,4244.615234,4366.282227,4247.563965,4276.794922,4260.384766,4232.436035,4244.102539,4246.794922,4232.820313,4228.589844,4180.512695,4228.205078,4056.794922,4236.410156,0.000000,1.000000,15.000000,,,,0.000000,4.000000,4.000000,4.000000,4.000000,4.000000,4.000000,4.000000,4.000000,4.000000,4.000000,4.000000,4.000000,4.000000,4.000000,100.000000,,,,,,,,,,,,,,,,,,,,,,,,,,,,
1649269461.649919,1649269461.673116,30.000000,0.000000,4247.051270,4364.230957,4248.461426,4273.974121,4251.794922,4231.538574,4242.563965,4245.512695,4231.794922,4225.512695,4185.512695,4230.384766,4066.794922,4241.282227,0.000000,1.000000,15.000000,,,,0.000000,4.000000,4.000000,4.000000,4.000000,4.000000,4.000000,4.000000,4.000000,4.000000,4.000000,4.000000,4.000000,4.000000,4.000000,100.000000,,,,,,,,,,,,,,,,,,,,,,,,,,,,
1649269461.657746,1649269461.680942,31.000000,0.000000,4246.538574,4358.333496,4246.666504,4267.436035,4249.615234,4231.794922,4241.282227,4244.358887,4227.692383,4224.743652,4181.794922,4228.205078,4066.410156,4237.820313,0.000000,1.000000,15.000000,,,,0.000000,4.000000,4.000000,4.000000,4.000000,4.000000,4.000000,4.000000,4.000000,4.000000,4.000000,4.000000,4.000000,4.000000,4.000000,100.000000,,,,,,,,,,,,,,,,,,,,,,,,,,,,
1649269461.665572,1649269461.688767,32.000000,0.000000,4247.820313,4359.102539,4246.410156,4264.102539,4259.487305,4232.051270,4238.974121,4245.769043,4233.077148,4228.717773,4187.051270,4229.358887,4069.871826,4240.384766,0.000000,1.000000,15.000000,,,,0.000000,4.000000,4.000000,4.000000,4.000000,4.000000,4.000000,4.000000,4.000000,4.000000,4.000000,4.000000,4.000000,4.000000,4.000000,100.000000,,,,,,,,,,,,,,,,,8.000000,0.000000,0.215762,-0.684082,0.134827,-0.683594,0.869642,-0.483894,0.027344,-34.244297,-112.303352,-6.729228
1649269461.673398,1649269461.696493,33.000000,0.000000,4255.512695,4365.000000,4257.179688,4270.128418,4268.974121,4234.871582,4242.692383,4249.230957,4246.794922,4237.948730,4202.051270,4241.538574,4089.230713,4253.461426,0.000000,1.000000,15.000000,,,,0.000000,4.000000,4.000000,4.000000,4.000000,4.000000,4.000000,4.000000,4.000000,4.000000,4.000000,4.000000,4.000000,4.000000,4.000000,100.000000,,,,,,,,,,,,,,,,,,,,,,,,,,,,
1649269461.681224,1649269461.704219,34.000000,0.000000,4262.051270,4366.153809,4259.102539,4277.692383,4261.025879,4237.179688,4249.358887,4248.846191,4251.153809,4242.948730,4208.333496,4242.307617,4099.487305,4254.743652,0.000000,1.000000,15.000000,,,,0.000000,4.000000,4.000000,4.000000,4.000000,4.000000,4.000000,4.000000,4.000000,4.000000,4.000000,4.000000,4.000000,4.000000,4.000000,100.000000,,,,,,,,,,,,,,,,,,,,,,,,,,,,
1649269461.689051,1649269461.712044,35.000000,0.000000,4256.922852,4361.410156,4247.307617,4274.102539,4244.102539,4235.512695,4245.000000,4246.794922,4245.128418,4240.641113,4202.307617,4229.615234,4089.871826,4247.436035,0.000000,1.000000,15.000000,,,,0.000000,4.000000,4.000000,4.000000,4.000000,4.000000,4.000000,4.000000,4.000000,4.000000,4.000000,4.000000,4.000000,4.000000,4.000000,100.000000,,,,,,,,,,,,,,,,,,,,,,,,,,,,
1649269461.696877,1649269461.719770,36.000000,0.000000,4250.769043,4358.461426,4245.897461,4274.487305,4253.846191,4234.871582,4236.538574,4246.282227,4243.205078,4239.743652,4200.641113,4225.897461,4090.641113,4254.615234,0.000000,1.000000,15.000000,,,,0.000000,4.000000,4.000000,4.000000,4.000000,4.000000,4.000000,4.000000,4.000000,4.000000,4.000000,4.000000,4.000000,4.000000,4.000000,100.000000,,,,,,,,,,,,,,,,,9.000000,0.000000,0.215098,-0.684021,0.134338,-0.683960,0.872084,-0.464363,0.017090,-33.496605,-111.705193,-5.682460
1649269461.704703,1649269461.727596,37.000000,0.000000,4253.589844,4361.794922,4252.179688,4280.512695,4270.641113,4236.922852,4235.512695,4249.102539,4247.563965,4245.000000,4210.384766,4230.000000,4106.153809,4261.922852,0.000000,1.000000,15.000000,,,,0.000000,4.000000,4.000000,4.000000,4.000000,4.000000,4.000000,4.000000,4.000000,4.000000,4.000000,4.000000,4.000000,4.000000,4.000000,100.000000,,,,,,,,,,,,,,,,,,,,,,,,,,,,
1649269461.712530,1649269461.735321,38.000000,0.000000,4253.846191,4359.102539,4251.025879,4274.487305,4255.897461,4236.666504,4235.641113,4248.846191,4249.230957,4248.333496,4217.051270,4229.358887,4113.717773,4256.410156,0.000000,1.000000,15.000000,,,,0.000000,4.000000,4.000000,4.000000,4.000000,4.000000,4.000000,4.000000,4.000000,4.000000,4.000000,4.000000,4.000000,4.000000,4.000000,100.000000,,,,,,,,,,,,,,,,,,,,,,,,,,,,
1649269461.720356,1649269461.743147,39.000000,0.000000,4246.025879,4345.897461,4247.307617,4263.589844,4247.948730,4234.102539,4233.077148,4236.922852,4242.692383,4242.948730,4206.922852,4227.820313,4102.307617,4251.666504,0.000000,1.000000,15.000000,,,,0.000000,4.000000,4.000000,4.000000,4.000000,4.000000,4.000000,4.000000,4.000000,4.000000,4.000000,4.000000,4.000000,4.000000,4.000000,100.000000,,,,,,,,,,,,,,,,,,,,,,,,,,,,
1649269461.728182,1649269461.750873,40.000000,0.000000,4245.000000,4340.641113,4247.307617,4262.307617,4262.179688,4233.205078,4231.922852,4235.512695,4243.333496,4243.974121,4202.563965,4229.615234,4100.512695,4257.820313,0.000000,1.000000,15.000000,,,,0.000000,4.000000,4.000000,4.000000,4.000000,4.000000,4.000000,4.000000,4.000000,4.000000,4.000000,4.000000,4.000000,4.000000,4.000000,100.000000,,,,,,,,,,,,,,,,,10.000000,0.000000,0.213791,-0.683655,0.132996,-0.684998,0.893080,-0.476081,0.025391,-32.748913,-112.303352,-3.439384
1649269461.736008,1649269461.758698,41.000000,0.000000,4253.589844,4347.820313,4248.205078,4268.077148,4257.948730,4233.205078,4229.358887,4246.538574,4250.897461,4250.769043,4216.410156,4233.077148,4117.820313,4262.820313,0.000000,1.000000,15.000000,,,,0.000000,4.000000,4.000000,4.000000,4.000000,4.000000,4.000000,4.000000,4.000000,4.000000,4.000000,4.000000,4.000000,4.000000,4.000000,100.000000,,,,,,,,,,,,,,,,,,,,,,,,,,,,
1649269461.743835,1649269461.766424,42.000000,0.000000,4247.179688,4337.692383,4246.922852,4260.897461,4242.051270,4232.436035,4225.384766,4239.230957,4242.307617,4240.769043,4214.487305,4229.358887,4112.436035,4252.179688,0.000000,1.000000,15.000000,,,,0.000000,4.000000,4.000000,4.000000,4.000000,4.000000,4.000000,4.000000,4.000000,4.000000,4.000000,4.000000,4.000000,4.000000,4.000000,100.000000,,,,,,,,,,,,,,,,,,,,,,,,,,,,
1649269461.751661,1649269461.774150,43.000000,0.000000,4234.358887,4322.820313,4243.717773,4250.000000,4243.333496,4231.922852,4226.410156,4226.538574,4229.743652,4231.025879,4196.282227,4217.692383,4093.974365,4240.128418,0.000000,1.000000,15.000000,,,,0.000000,4.000000,4.000000,4.000000,4.000000,4.000000,4.000000,4.000000,4.000000,4.000000,4.000000,4.000000,4.000000,4.000000,4.000000,100.000000,,,,,,,,,,,,,,,,,,,,,,,,,,,,
1649269461.759487,1649269461.781975,44.000000,0.000000,4239.871582,4328.461426,4244.102539,4254.743652,4246.153809,4232.179688,4228.974121,4232.436035,4232.563965,4239.358887,4196.153809,4219.615234,4096.538574,4243.717773,0.000000,1.000000,15.000000,,,,0.000000,4.000000,4.000000,4.000000,4.000000,4.000000,4.000000,4.000000,4.000000,4.000000,4.000000,4.000000,4.000000,4.000000,4.000000,100.000000,,,,,,,,,,,,,,,,,11.000000,0.000000,0.212948,-0.683044,0.130859,-0.686279,0.886244,-0.496590,0.038575,-33.496605,-113.051041,-6.729228
1649269461.767313,1649269461.789801,45.000000,0.000000,4252.307617,4335.897461,4246.666504,4261.666504,4245.128418,4232.563965,4226.538574,4233.589844,4234.615234,4238.717773,4209.743652,4231.410156,4110.641113,4253.846191,0.000000,1.000000,15.000000,,,,0.000000,4.000000,4.000000,4.000000,4.000000,4.000000,4.000000,4.000000,4.000000,4.000000,4.000000,4.000000,4.000000,4.000000,4.000000,100.000000,,,,,,,,,,,,,,,,,,,,,,,,,,,,
1649269461.775140,1649269461.797527,46.000000,0.000000,4258.205078,4338.461426,4248.461426,4262.307617,4254.358887,4234.102539,4226.410156,4229.102539,4236.282227,4234.487305,4218.077148,4234.487305,4124.871582,4261.153809,0.000000,1.000000,15.000000,,,,0.000000,4.000000,4.000000,4.000000,4.000000,4.000000,4.000000,4.000000,4.000000,4.000000,4.000000,4.000000,4.000000,4.000000,4.000000,100.000000,,,,,,,,,,,,,,,,,,,,,,,,,,,,
1649269461.782966,1649269461.805252,47.000000,0.000000,4255.000000,4337.563965,4249.743652,4261.025879,4262.563965,4236.153809,4230.512695,4239.230957,4247.948730,4246.794922,4219.743652,4227.179688,4133.461426,4262.307617,0.000000,1.000000,15.000000,,,,0.000000,4.000000,4.000000,4.000000,4.000000,4.000000,4.000000,4.000000,4.000000,4.000000,4.000000,4.000000,4.000000,4.000000,4.000000,100.000000,,,,,,,,,,,,,,,,,,,,,,,,,,,,
1649269461.790792,1649269461.813078,48.000000,0.000000,4248.589844,4329.358887,4245.769043,4255.769043,4258.589844,4235.897461,4232.563965,4246.410156,4250.769043,4250.769043,4216.538574,4219.743652,4127.436035,4249.743652,0.000000,1.000000,15.000000,,,,0.000000,4.000000,4.000000,4.000000,4.000000,4.000000,4.000000,4.000000,4.000000,4.000000,4.000000,4.000000,4.000000,4.000000,4.000000,100.000000,,,,,,,,,,,,,,,,,12.000000,0.000000,0.212678,-0.682678,0.130005,-0.686890,0.892592,-0.473152,0.045899,-32.449837,-112.602425,-5.084306
1649269461.798618,1649269461.820804,49.000000,0.000000,4243.974121,4321.153809,4240.641113,4248.461426,4245.769043,4235.256348,4231.025879,4242.563965,4242.436035,4242.179688,4208.333496,4217.948730,4118.333496,4234.230957,0.000000,1.000000,15.000000,,,,0.000000,4.000000,4.000000,4.000000,4.000000,4.000000,4.000000,4.000000,4.000000,4.000000,4.000000,4.000000,4.000000,4.000000,4.000000,100.000000,,,,,,,,,,,,,,,,,,,,,,,,,,,,
1649269461.806445,1649269461.828529,50.000000,0.000000,4237.436035,4315.384766,4241.153809,4246.282227,4239.358887,4234.743652,4230.769043,4244.358887,4241.794922,4243.846191,4202.051270,4215.384766,4121.410156,4230.000000,0.000000,1.000000,15.000000,,,,0.000000,4.000000,4.000000,4.000000,4.000000,4.000000,4.000000,4.000000,4.000000,4.000000,4.000000,4.000000,4.000000,4.000000,4.000000,100.000000,,,,,,,,,,,,,,,,,,,,,,,,,,,,
1649269461.814271,1649269461.836355,51.000000,0.000000,4231.282227,4307.820313,4243.461426,4243.974121,4247.051270,4235.384766,4234.102539,4248.846191,4245.384766,4248.589844,4205.512695,4214.102539,4127.179688,4230.641113,0.000000,1.000000,15.000000,,,,0.000000,4.000000,4.000000,4.000000,4.000000,4.000000,4.000000,4.000000,4.000000,4.000000,4.000000,4.000000,4.000000,4.000000,4.000000,100.000000,,,,,,,,,,,,,,,,,,,,,,,,,,,,
1649269461.822097,1649269461.844181,52.000000,0.000000,4239.230957,4308.461426,4246.153809,4244.743652,4261.410156,4240.512695,4235.000000,4247.948730,4246.794922,4246.794922,4213.974121,4223.333496,4136.794922,4236.538574,0.000000,1.000000,15.000000,,,,0.000000,4.000000,4.000000,4.000000,4.000000,4.000000,4.000000,4.000000,4.000000,4.000000,4.000000,4.000000,4.000000,4.000000,4.000000,100.000000,,,,,,,,,,,,,,,,,13.000000,0.000000,0.213340,-0.681946,0.129211,-0.687561,0.889662,-0.480964,0.053223,-34.094757,-112.602425,-5.831998
1649269461.829924,1649269461.851906,53.000000,0.000000,4248.333496,4314.487305,4249.358887,4251.538574,4266.153809,4247.307617,4233.461426,4245.641113,4247.948730,4247.051270,4217.820313,4234.487305,4144.871582,4241.922852,0.000000,1.000000,15.000000,,,,0.000000,4.000000,4.000000,4.000000,4.000000,4.000000,4.000000,4.000000,4.000000,4.000000,4.000000,4.000000,4.000000,4.000000,4.000000,100.000000,,,,,,,,,,,,,,,,,,,,,,,,,,,,
1649269461.837750,1649269461.859632,54.000000,0.000000,4243.846191,4310.897461,4248.461426,4251.922852,4250.256348,4249.871582,4237.948730,4248.589844,4250.512695,4252.179688,4217.948730,4233.717773,4143.077148,4235.512695,0.000000,1.000000,15.000000,,,,0.000000,4.000000,4.000000,4.000000,4.000000,4.000000,4.000000,4.000000,4.000000,4.000000,4.000000,4.000000,4.000000,4.000000,4.000000,100.000000,,,,,,,,,,,,,,,,,,,,,,,,,,,,
1649269461.845576,1649269461.867458,55.000000,0.000000,4242.436035,4308.333496,4244.615234,4248.974121,4245.512695,4249.487305,4243.717773,4251.025879,4250.000000,4260.384766,4215.000000,4227.051270,4144.871582,4230.897461,0.000000,1.000000,15.000000,,,,0.000000,4.000000,4.000000,4.000000,4.000000,4.000000,4.000000,4.000000,4.000000,4.000000,4.000000,4.000000,4.000000,4.000000,4.000000,100.000000,,,,,,,,,,,,,,,,,,,,,,,,,,,,
1649269461.853403,1649269461.875183,56.000000,0.000000,4247.307617,4310.641113,4246.410156,4251.538574,4258.461426,4250.128418,4243.974121,4251.794922,4246.794922,4265.000000,4216.025879,4229.102539,4152.436035,4240.897461,0.000000,1.000000,15.000000,,,,0.000000,4.000000,4.000000,4.000000,4.000000,4.000000,4.000000,4.000000,4.000000,4.000000,4.000000,4.000000,4.000000,4.000000,4.000000,100.000000,,,,,,,,,,,,,,,,,14.000000,0.000000,0.214421,-0.681274,0.130310,-0.687683,0.883803,-0.493660,0.050782,-33.945221,-112.751968,-5.682460
1649269461.861229,1649269461.883009,57.000000,0.000000,4252.563965,4310.512695,4250.769043,4258.205078,4255.384766,4251.153809,4242.948730,4257.820313,4253.974121,4264.102539,4226.538574,4238.846191,4160.641113,4248.846191,0.000000,1.000000,15.000000,,,,0.000000,4.000000,4.000000,4.000000,4.000000,4.000000,4.000000,4.000000,4.000000,4.000000,4.000000,4.000000,4.000000,4.000000,4.000000,100.000000,,,,,,,,,,,,,,,,,,,,,,,,,,,,
1649269461.869055,1649269461.890735,58.000000,0.000000,4259.358887,4311.794922,4250.769043,4263.717773,4249.230957,4251.153809,4239.230957,4261.025879,4265.641113,4267.563965,4236.153809,4246.794922,4172.948730,4252.692383,0.000000,1.000000,15.000000,,,,0.000000,4.000000,4.000000,4.000000,4.000000,4.000000,4.000000,4.000000,4.000000,4.000000,4.000000,4.000000,4.000000,4.000000,4.000000,100.000000,,,,,,,,,,,,,,,,,,,,,,,,,,,,
1649269461.876881,1649269461.898560,59.000000,0.000000,4261.666504,4318.717773,4253.846191,4264.487305,4261.922852,4251.153809,4232.948730,4251.410156,4259.230957,4267.948730,4235.128418,4247.051270,4178.205078,4258.205078,0.000000,1.000000,15.000000,,,,0.000000,4.000000,4.000000,4.000000,4.000000,4.000000,4.000000,4.000000,4.000000,4.000000,4.000000,4.000000,4.000000,4.000000,4.000000,100.000000,,,,,,,,,,,,,,,,,,,,,,,,,,,,
1649269461.884708,1649269461.906286,60.000000,0.000000,4260.641113,4321.282227,4262.307617,4262.948730,4273.461426,4251.153809,4233.974121,4246.282227,4243.717773,4259.358887,4228.717773,4241.282227,4172.692383,4255.512695,0.000000,1.000000,15.000000,,,,0.000000,4.000000,4.000000,4.000000,4.000000,4.000000,4.000000,4.000000,4.000000,4.000000,4.000000,4.000000,4.000000,4.000000,4.000000,100.000000,,,,,,,,,,,,,,,,,15.000000,0.000000,0.216141,-0.680603,0.132568,-0.687378,0.876478,-0.487800,0.030274,-31.702145,-114.396889,-5.084306
1649269461.892534,1649269461.914112,61.000000,0.000000,4264.230957,4317.692383,4262.436035,4265.769043,4267.820313,4250.512695,4237.179688,4247.436035,4242.179688,4256.666504,4222.563965,4236.153809,4174.487305,4248.717773,0.000000,1.000000,15.000000,,,,0.000000,4.000000,4.000000,4.000000,4.000000,4.000000,4.000000,4.000000,4.000000,4.000000,4.000000,4.000000,4.000000,4.000000,4.000000,100.000000,,,,,,,,,,,,,,,,,,,,,,,,,,,,
1649269461.900360,1649269461.921837,62.000000,0.000000,4261.794922,4311.666504,4250.641113,4263.077148,4252.563965,4248.589844,4233.077148,4240.000000,4246.538574,4256.666504,4219.871582,4234.230957,4182.051270,4247.563965,0.000000,1.000000,15.000000,,,,0.000000,4.000000,4.000000,4.000000,4.000000,4.000000,4.000000,4.000000,4.000000,4.000000,4.000000,4.000000,4.000000,4.000000,4.000000,100.000000,,,,,,,,,,,,,,,,,,,,,,,,,,,,
1649269461.908186,1649269461.929663,63.000000,0.000000,4254.487305,4301.025879,4243.974121,4252.051270,4244.358887,4247.820313,4230.000000,4230.384766,4241.666504,4248.077148,4214.487305,4234.358887,4171.410156,4243.333496,0.000000,1.000000,15.000000,,,,0.000000,4.000000,4.000000,4.000000,4.000000,4.000000,4.000000,4.000000,4.000000,4.000000,4.000000,4.000000,4.000000,4.000000,4.000000,100.000000,,,,,,,,,,,,,,,,,,,,,,,,,,,,
1649269461.916013,1649269461.937389,64.000000,0.000000,4258.333496,4298.077148,4252.179688,4251.025879,4252.307617,4246.666504,4232.179688,4233.846191,4238.589844,4247.179688,4212.563965,4234.230957,4165.641113,4239.743652,2778.000000,1.000000,15.000000,,,,0.000000,4.000000,4.000000,4.000000,4.000000,4.000000,4.000000,4.000000,4.000000,4.000000,4.000000,4.000000,4.000000,4.000000,4.000000,100.000000,,,,,,,,,,,,,,,,,16.000000,0.000000,0.217467,-0.679749,0.134766,-0.687378,0.861341,-0.486336,0.030274,-32.748913,-112.004272,-4.934768
1649269461.923839,1649269461.945214,65.000000,0.000000,4266.922852,4303.077148,4260.384766,4255.641113,4265.256348,4245.769043,4233.461426,4242.563965,4246.410156,4262.179688,4228.461426,4238.846191,4196.153809,4254.871582,3226.000000,1.000000,15.000000,,,,0.000000,4.000000,4.000000,4.000000,4.000000,4.000000,4.000000,4.000000,4.000000,4.000000,4.000000,4.000000,4.000000,4.000000,4.000000,100.000000,,,,,,,,,,,,,,,,,,,,,,,,,,,,
1649269461.931665,1649269461.952940,66.000000,0.000000,4266.153809,4291.794922,4258.846191,4251.153809,4264.230957,4249.487305,4233.333496,4240.897461,4251.025879,4263.974121,4243.205078,4247.948730,4225.384766,4265.769043,3282.000000,1.000000,15.000000,,,,0.000000,4.000000,4.000000,4.000000,4.000000,4.000000,4.000000,4.000000,4.000000,4.000000,4.000000,4.000000,4.000000,4.000000,4.000000,100.000000,,,,,,,,,,,,,,,,,,,,,,,,,,,,
1649269461.939491,1649269461.960766,67.000000,0.000000,4260.897461,4273.461426,4255.384766,4247.436035,4254.743652,4252.051270,4231.153809,4233.846191,4245.897461,4249.871582,4237.692383,4248.589844,4220.641113,4255.256348,2825.000000,1.000000,15.000000,,,,0.000000,4.000000,4.000000,4.000000,4.000000,4.000000,4.000000,4.000000,4.000000,4.000000,4.000000,4.000000,4.000000,4.000000,4.000000,100.000000,,,,,,,,,,,,,,,,,,,,,,,,,,,,
1649269461.947318,1649269461.968491,68.000000,0.000000,4260.769043,4280.256348,4252.948730,4249.871582,4249.358887,4248.077148,4229.358887,4233.717773,4241.410156,4246.922852,4229.230957,4246.410156,4214.230957,4248.589844,3326.000000,1.000000,15.000000,,,,0.000000,4.000000,4.000000,4.000000,4.000000,4.000000,4.000000,4.000000,4.000000,4.000000,4.000000,4.000000,4.000000,4.000000,4.000000,100.000000,,,,,,,,,,,,,,,,,17.000000,0.000000,0.217413,-0.679016,0.136047,-0.687866,0.875502,-0.498054,0.039551,-32.748913,-112.751968,-4.187076
1649269461.955144,1649269461.976317,69.000000,0.000000,4261.153809,4288.974121,4250.000000,4248.717773,4246.794922,4246.666504,4229.487305,4235.256348,4242.307617,4256.666504,4236.410156,4246.410156,4219.102539,4250.384766,3067.000000,1.000000,15.000000,,,,0.000000,4.000000,4.000000,4.000000,4.000000,4.000000,4.000000,4.000000,4.000000,4.000000,4.000000,4.000000,4.000000,4.000000,4.000000,100.000000,,,,,,,,,,,,,,,,,,,,,,,,,,,,
1649269461.962970,1649269461.984043,70.000000,0.000000,4260.256348,4282.436035,4255.641113,4253.205078,4248.205078,4250.641113,4231.410156,4238.974121,4251.025879,4265.128418,4249.487305,4247.563965,4219.743652,4249.230957,3300.000000,1.000000,15.000000,,,,0.000000,4.000000,4.000000,4.000000,4.000000,4.000000,4.000000,4.000000,4.000000,4.000000,4.000000,4.000000,4.000000,4.000000,4.000000,100.000000,,,,,,,,,,,,,,,,,,,,,,,,,,,,
1649269461.970796,1649269461.991868,71.000000,0.000000,4261.025879,4284.102539,4264.743652,4263.846191,4258.461426,4251.538574,4235.000000,4246.410156,4258.333496,4265.384766,4253.077148,4251.025879,4217.948730,4249.102539,3228.000000,1.000000,15.000000,,,,0.000000,4.000000,4.000000,4.000000,4.000000,4.000000,4.000000,4.000000,4.000000,4.000000,4.000000,4.000000,4.000000,4.000000,4.000000,100.000000,,,,,,,,,,,,,,,,,,,,,,,,,,,,
1649269461.978623,1649269461.999594,72.000000,0.000000,4263.077148,4291.794922,4264.230957,4264.358887,4267.179688,4249.871582,4236.538574,4249.615234,4255.256348,4262.692383,4249.358887,4251.538574,4217.820313,4251.025879,4182.000000,1.000000,15.000000,,,,0.000000,4.000000,4.000000,4.000000,4.000000,4.000000,4.000000,4.000000,4.000000,4.000000,4.000000,4.000000,4.000000,4.000000,4.000000,100.000000,,,,,,,,,,,,,,,,,18.000000,0.000000,0.216850,-0.678406,0.137207,-0.688416,0.891127,-0.492683,0.038575,-33.047989,-112.751968,-6.729228
1649269461.986449,1649269462.007420,73.000000,0.000000,4267.179688,4293.717773,4260.256348,4263.589844,4257.179688,4249.871582,4235.128418,4251.153809,4255.769043,4261.410156,4249.358887,4248.974121,4216.282227,4249.487305,3260.000000,1.000000,15.000000,,,,0.000000,4.000000,4.000000,4.000000,4.000000,4.000000,4.000000,4.000000,4.000000,4.000000,4.000000,4.000000,4.000000,4.000000,4.000000,100.000000,,,,,,,,,,,,,,,,,,,,,,,,,,,,
1649269461.994275,1649269462.015145,74.000000,0.000000,4265.897461,4291.666504,4260.512695,4265.384766,4242.179688,4250.641113,4232.692383,4254.871582,4262.692383,4263.589844,4252.051270,4245.384766,4221.282227,4252.179688,3202.000000,1.000000,15.000000,,,,0.000000,4.000000,4.000000,4.000000,4.000000,4.000000,4.000000,4.000000,4.000000,4.000000,4.000000,4.000000,4.000000,4.000000,4.000000,100.000000,,,,,,,,,,,,,,,,,,,,,,,,,,,,
1649269462.002102,1649269462.022971,75.000000,0.000000,4263.589844,4290.897461,4261.922852,4265.897461,4244.871582,4251.025879,4233.846191,4254.230957,4259.743652,4262.692383,4251.538574,4247.307617,4229.615234,4258.846191,3256.000000,1.000000,15.000000,,,,0.000000,4.000000,4.000000,4.000000,4.000000,4.000000,4.000000,4.000000,4.000000,4.000000,4.000000,4.000000,4.000000,4.000000,4.000000,100.000000,,,,,,,,,,,,,,,,,,,,,,,,,,,,
1649269462.009928,1649269462.030697,76.000000,0.000000,4270.897461,4293.846191,4264.102539,4272.692383,4256.538574,4249.487305,4239.358887,4260.512695,4257.436035,4262.179688,4257.820313,4256.538574,4231.538574,4262.948730,3217.000000,1.000000,15.000000,,,,0.000000,4.000000,4.000000,4.000000,4.000000,4.000000,4.000000,4.000000,4.000000,4.000000,4.000000,4.000000,4.000000,4.000000,4.000000,100.000000,,,,,,,,,,,,,,,,,19.000000,0.000000,0.216235,-0.677734,0.138123,-0.689087,0.877943,-0.501961,0.040528,-34.692913,-114.247345,-4.934768
1649269462.017754,1649269462.038422,77.000000,0.000000,4277.692383,4300.384766,4266.282227,4282.179688,4265.128418,4251.538574,4240.641113,4266.410156,4264.230957,4269.358887,4265.384766,4258.589844,4233.205078,4266.153809,3204.000000,1.000000,15.000000,,,,0.000000,4.000000,4.000000,4.000000,4.000000,4.000000,4.000000,4.000000,4.000000,4.000000,4.000000,4.000000,4.000000,4.000000,4.000000,100.000000,,,,,,,,,,,,,,,,,,,,,,,,,,,,
1649269462.025580,1649269462.046248,78.000000,0.000000,4269.358887,4297.436035,4264.230957,4279.102539,4262.179688,4256.538574,4234.743652,4256.153809,4264.871582,4272.307617,4261.025879,4250.512695,4230.512695,4258.974121,3202.000000,1.000000,15.000000,,,,0.000000,4.000000,4.000000,4.000000,4.000000,4.000000,4.000000,4.000000,4.000000,4.000000,4.000000,4.000000,4.000000,4.000000,4.000000,100.000000,,,,,,,,,,,,,,,,,,,,,,,,,,,,
1649269462.033407,1649269462.054074,79.000000,0.000000,4262.051270,4288.974121,4259.871582,4274.102539,4255.128418,4254.230957,4230.641113,4249.230957,4258.205078,4264.743652,4258.846191,4245.897461,4224.102539,4251.410156,3256.000000,1.000000,15.000000,,,,0.000000,4.000000,4.000000,4.000000,4.000000,4.000000,4.000000,4.000000,4.000000,4.000000,4.000000,4.000000,4.000000,4.000000,4.000000,100.000000,,,,,,,,,,,,,,,,,,,,,,,,,,,,
1649269462.041233,1649269462.061799,80.000000,0.000000,4270.128418,4295.128418,4261.153809,4277.948730,4263.974121,4247.820313,4228.974121,4252.051270,4253.717773,4259.743652,4264.102539,4251.410156,4226.282227,4258.846191,3217.000000,1.000000,15.000000,,,,0.000000,4.000000,4.000000,4.000000,4.000000,4.000000,4.000000,4.000000,4.000000,4.000000,4.000000,4.000000,4.000000,4.000000,4.000000,100.000000,,,,,,,,,,,,,,,,,20.000000,0.000000,0.215066,-0.677124,0.138977,-0.689880,0.882826,-0.493172,0.038087,-33.496605,-114.995041,-4.486153
1649269462.049059,1649269462.069525,81.000000,0.000000,4260.897461,4280.897461,4265.512695,4268.077148,4264.230957,4247.563965,4229.871582,4252.692383,4250.512695,4261.410156,4255.897461,4252.179688,4211.282227,4251.666504,3204.000000,1.000000,15.000000,,,,0.000000,4.000000,4.000000,4.000000,4.000000,4.000000,4.000000,4.000000,4.000000,4.000000,4.000000,4.000000,4.000000,4.000000,4.000000,100.000000,,,,,,,,,,,,,,,,,,,,,,,,,,,,
1649269462.056885,1649269462.077251,82.000000,0.000000,4242.307617,4255.128418,4262.436035,4253.717773,4245.256348,4248.974121,4228.205078,4251.538574,4248.333496,4261.282227,4247.307617,4245.897461,4191.153809,4234.487305,3202.000000,1.000000,15.000000,,,,0.000000,4.000000,4.000000,4.000000,4.000000,4.000000,4.000000,4.000000,4.000000,4.000000,4.000000,4.000000,4.000000,4.000000,4.000000,100.000000,,,,,,,,,,,,,,,,,,,,,,,,,,,,
1649269462.064712,1649269462.085076,83.000000,0.000000,4261.282227,4282.948730,4262.179688,4269.487305,4245.897461,4248.461426,4222.692383,4249.230957,4255.256348,4262.051270,4258.333496,4252.563965,4206.794922,4250.512695,3256.000000,1.000000,15.000000,,,,0.000000,4.000000,4.000000,4.000000,4.000000,4.000000,4.000000,4.000000,4.000000,4.000000,4.000000,4.000000,4.000000,4.000000,4.000000,100.000000,,,,,,,,,,,,,,,,,,,,,,,,,,,,
1649269462.072538,1649269462.092902,84.000000,0.000000,4281.922852,4332.948730,4270.384766,4294.358887,4268.846191,4249.615234,4222.051270,4247.436035,4262.179688,4265.256348,4269.358887,4265.000000,4225.128418,4274.102539,3217.000000,1.000000,15.000000,,,,0.000000,4.000000,4.000000,4.000000,4.000000,4.000000,4.000000,4.000000,4.000000,4.000000,4.000000,4.000000,4.000000,4.000000,4.000000,100.000000,,,,,,,,,,,,,,,,,21.000000,0.000000,0.214422,-0.676880,0.139343,-0.690247,0.894057,-0.482918,0.046387,-34.692913,-114.995041,-2.691691
1649269462.080364,1649269462.100628,85.000000,0.000000,4267.948730,4339.871582,4270.769043,4292.436035,4266.666504,4249.743652,4223.077148,4248.205078,4255.000000,4262.307617,4262.051270,4259.871582,4204.230957,4261.538574,3204.000000,1.000000,15.000000,,,,0.000000,4.000000,4.000000,4.000000,4.000000,4.000000,4.000000,4.000000,4.000000,4.000000,4.000000,4.000000,4.000000,4.000000,4.000000,100.000000,0.976563,50.000000,4.000000,1.000000,4.000000,4.000000,4.000000,4.000000,4.000000,4.000000,4.000000,4.000000,4.000000,4.000000,1.000000,4.000000,,,,,,,,,,,,
1649269462.088190,1649269462.108453,86.000000,0.000000,4257.563965,4330.128418,4265.512695,4280.512695,4244.102539,4248.461426,4222.179688,4248.461426,4252.692383,4262.307617,4251.794922,4246.025879,4183.974121,4245.769043,3202.000000,1.000000,15.000000,,,,0.000000,4.000000,4.000000,4.000000,4.000000,4.000000,4.000000,4.000000,4.000000,4.000000,4.000000,4.000000,4.000000,4.000000,4.000000,100.000000,,,,,,,,,,,,,,,,,,,,,,,,,,,,
1649269462.096017,1649269462.116179,87.000000,0.000000,4258.717773,4327.820313,4262.820313,4277.051270,4247.563965,4247.436035,4224.871582,4247.563965,4258.333496,4259.743652,4247.051270,4243.846191,4186.410156,4245.897461,3256.000000,1.000000,15.000000,,,,0.000000,4.000000,4.000000,4.000000,4.000000,4.000000,4.000000,4.000000,4.000000,4.000000,4.000000,4.000000,4.000000,4.000000,4.000000,100.000000,,,,,,,,,,,,,,,,,,,,,,,,,,,,
1649269462.103843,1649269462.124005,88.000000,0.000000,4248.974121,4321.025879,4259.615234,4276.410156,4266.922852,4247.692383,4229.358887,4246.025879,4250.000000,4251.666504,4244.743652,4246.025879,4187.179688,4243.077148,3217.000000,1.000000,15.000000,,,,0.000000,4.000000,4.000000,4.000000,4.000000,4.000000,4.000000,4.000000,4.000000,4.000000,4.000000,4.000000,4.000000,4.000000,4.000000,100.000000,,,,,,,,,,,,,,,,,22.000000,0.000000,0.213209,-0.676453,0.139648,-0.690979,0.882338,-0.482918,0.042969,-34.244297,-112.751968,-4.486153
1649269462.111669,1649269462.131730,89.000000,0.000000,4252.563965,4322.051270,4265.641113,4280.512695,4268.461426,4252.820313,4230.897461,4244.487305,4244.615234,4256.025879,4247.179688,4246.922852,4185.641113,4243.717773,3204.000000,1.000000,15.000000,,,,0.000000,4.000000,4.000000,4.000000,4.000000,4.000000,4.000000,4.000000,4.000000,4.000000,4.000000,4.000000,4.000000,4.000000,4.000000,100.000000,,,,,,,,,,,,,,,,,,,,,,,,,,,,
1649269462.119496,1649269462.139556,90.000000,0.000000,4265.128418,4323.205078,4274.743652,4281.282227,4261.922852,4258.846191,4232.948730,4254.487305,4262.051270,4267.179688,4248.077148,4251.025879,4186.410156,4248.333496,3202.000000,1.000000,15.000000,,,,0.000000,4.000000,4.000000,4.000000,4.000000,4.000000,4.000000,4.000000,4.000000,4.000000,4.000000,4.000000,4.000000,4.000000,4.000000,100.000000,,,,,,,,,,,,,,,,,,,,,,,,,,,,
1649269462.127322,1649269462.147382,91.000000,0.000000,4254.358887,4313.333496,4270.384766,4276.922852,4263.205078,4257.692383,4236.538574,4263.333496,4267.948730,4267.820313,4246.538574,4252.948730,4191.410156,4250.256348,3256.000000,1.000000,15.000000,,,,0.000000,4.000000,4.000000,4.000000,4.000000,4.000000,4.000000,4.000000,4.000000,4.000000,4.000000,4.000000,4.000000,4.000000,4.000000,100.000000,,,,,,,,,,,,,,,,,,,,,,,,,,,,
1649269462.135148,1649269462.155107,92.000000,0.000000,4244.487305,4312.948730,4261.410156,4275.384766,4266.025879,4253.333496,4234.871582,4252.948730,4250.769043,4261.410156,4241.922852,4249.871582,4193.461426,4249.871582,3217.000000,1.000000,15.000000,,,,0.000000,4.000000,4.000000,4.000000,4.000000,4.000000,4.000000,4.000000,4.000000,4.000000,4.000000,4.000000,4.000000,4.000000,4.000000,100.000000,,,,,,,,,,,,,,,,,23.000000,0.000000,0.212169,-0.675781,0.139648,-0.691956,0.891615,-0.495125,0.047852,-34.094757,-112.153809,-4.336614
1649269462.142974,1649269462.162833,93.000000,0.000000,4246.410156,4313.461426,4255.384766,4269.615234,4263.333496,4249.743652,4235.000000,4246.410156,4242.436035,4253.717773,4234.102539,4243.205078,4185.128418,4243.717773,3204.000000,1.000000,15.000000,,,,0.000000,4.000000,4.000000,4.000000,4.000000,4.000000,4.000000,4.000000,4.000000,4.000000,4.000000,4.000000,4.000000,4.000000,4.000000,100.000000,,,,,,,,,,,,,,,,,,,,,,,,,,,,
1649269462.150801,1649269462.170559,94.000000,0.000000,4240.641113,4302.179688,4251.025879,4262.436035,4257.179688,4249.102539,4241.153809,4260.384766,4247.692383,4248.333496,4231.666504,4236.794922,4180.384766,4235.256348,3202.000000,1.000000,15.000000,,,,0.000000,4.000000,4.000000,4.000000,4.000000,4.000000,4.000000,4.000000,4.000000,4.000000,4.000000,4.000000,4.000000,4.000000,4.000000,100.000000,,,,,,,,,,,,,,,,,,,,,,,,,,,,
1649269462.158627,1649269462.178384,95.000000,0.000000,4228.974121,4292.436035,4249.102539,4261.666504,4246.025879,4254.615234,4247.179688,4263.205078,4248.717773,4248.589844,4232.948730,4232.692383,4181.153809,4229.871582,3256.000000,1.000000,15.000000,,,,0.000000,4.000000,4.000000,4.000000,4.000000,4.000000,4.000000,4.000000,4.000000,4.000000,4.000000,4.000000,4.000000,4.000000,4.000000,100.000000,,,,,,,,,,,,,,,,,,,,,,,,,,,,
1649269462.166453,1649269462.186210,96.000000,0.000000,4226.794922,4292.051270,4247.307617,4260.641113,4247.692383,4260.000000,4244.871582,4248.077148,4245.000000,4248.846191,4234.487305,4229.358887,4182.692383,4229.871582,3217.000000,1.000000,15.000000,,,,0.000000,4.000000,4.000000,4.000000,4.000000,4.000000,4.000000,4.000000,4.000000,4.000000,4.000000,4.000000,4.000000,4.000000,4.000000,100.000000,,,,,,,,,,,,,,,,,24.000000,0.000000,0.211355,-0.675110,0.139893,-0.692810,0.893568,-0.493660,0.030762,-32.898453,-112.602425,-5.084306
1649269462.174279,1649269462.193936,97.000000,0.000000,4228.846191,4293.205078,4250.897461,4257.820313,4260.384766,4259.487305,4243.333496,4251.538574,4247.692383,4250.512695,4233.461426,4231.025879,4184.743652,4231.153809,3204.000000,1.000000,15.000000,,,,0.000000,4.000000,4.000000,4.000000,4.000000,4.000000,4.000000,4.000000,4.000000,4.000000,4.000000,4.000000,4.000000,4.000000,4.000000,100.000000,,,,,,,,,,,,,,,,,,,,,,,,,,,,
1649269462.182106,1649269462.201761,98.000000,0.000000,4231.025879,4293.461426,4260.384766,4261.538574,4258.717773,4258.461426,4248.589844,4265.384766,4257.563965,4260.256348,4234.615234,4235.256348,4186.922852,4233.717773,3202.000000,1.000000,15.000000,,,,0.000000,4.000000,4.000000,4.000000,4.000000,4.000000,4.000000,4.000000,4.000000,4.000000,4.000000,4.000000,4.000000,4.000000,4.000000,100.000000,,,,,,,,,,,,,,,,,,,,,,,,,,,,
1649269462.189932,1649269462.209487,99.000000,0.000000,4238.717773,4293.077148,4263.333496,4266.025879,4252.948730,4263.333496,4246.410156,4258.717773,4261.153809,4267.051270,4240.512695,4234.358887,4193.461426,4239.487305,3256.000000,1.000000,15.000000,,,,0.000000,4.000000,4.000000,4.000000,4.000000,4.000000,4.000000,4.000000,4.000000,4.000000,4.000000,4.000000,4.000000,4.000000,4.000000,100.000000,,,,,,,,,,,,,,,,,,,,,,,,,,,,
1649269462.197758,1649269462.217213,100.000000,0.000000,4242.820313,4293.589844,4262.051270,4262.307617,4257.820313,4263.717773,4242.179688,4246.794922,4253.333496,4260.512695,4241.410156,4232.820313,4197.307617,4243.974121,3217.000000,1.000000,15.000000,,,,0.000000,4.000000,4.000000,4.000000,4.000000,4.000000,4.000000,4.000000,4.000000,4.000000,4.000000,4.000000,4.000000,4.000000,4.000000,100.000000,,,,,,,,,,,,,,,,,25.000000,0.000000,0.211078,-0.674683,0.139954,-0.693298,0.879896,-0.473152,0.047852,-34.244297,-112.303352,-4.486153
1649269462.205584,1649269462.225038,101.000000,0.000000,4240.512695,4293.589844,4265.769043,4258.974121,4263.077148,4254.230957,4244.615234,4245.641113,4244.358887,4251.153809,4236.025879,4236.282227,4192.436035,4244.743652,3204.000000,1.000000,15.000000,,,,0.000000,4.000000,4.000000,4.000000,4.000000,4.000000,4.000000,4.000000,4.000000,4.000000,4.000000,4.000000,4.000000,4.000000,4.000000,100.000000,,,,,,,,,,,,,,,,,,,,,,,,,,,,
1649269462.213411,1649269462.232764,102.000000,0.000000,4242.179688,4293.077148,4267.179688,4261.410156,4260.897461,4248.077148,4239.487305,4242.820313,4239.230957,4243.333496,4231.922852,4237.692383,4187.948730,4244.230957,3202.000000,1.000000,15.000000,,,,0.000000,4.000000,4.000000,4.000000,4.000000,4.000000,4.000000,4.000000,4.000000,4.000000,4.000000,4.000000,4.000000,4.000000,4.000000,100.000000,,,,,,,,,,,,,,,,,,,,,,,,,,,,
1649269462.221237,1649269462.240590,103.000000,0.000000,4246.410156,4293.333496,4265.128418,4264.743652,4258.205078,4249.487305,4232.820313,4241.666504,4243.205078,4246.666504,4233.974121,4238.589844,4191.794922,4243.077148,3256.000000,1.000000,15.000000,,,,0.000000,4.000000,4.000000,4.000000,4.000000,4.000000,4.000000,4.000000,4.000000,4.000000,4.000000,4.000000,4.000000,4.000000,4.000000,100.000000,,,,,,,,,,,,,,,,,,,,,,,,,,,,
1649269462.229063,1649269462.248315,104.000000,0.000000,4248.461426,4295.000000,4266.282227,4265.512695,4258.589844,4256.025879,4240.128418,4249.230957,4254.487305,4258.974121,4242.436035,4246.282227,4197.820313,4246.538574,3217.000000,1.000000,15.000000,,,,0.000000,4.000000,4.000000,4.000000,4.000000,4.000000,4.000000,4.000000,4.000000,4.000000,4.000000,4.000000,4.000000,4.000000,4.000000,100.000000,,,,,,,,,,,,,,,,,26.000000,0.000000,0.210776,-0.674438,0.139771,-0.693665,0.890150,-0.495613,0.058106,-33.496605,-112.303352,-5.682460
1649269462.236890,1649269462.256141,105.000000,0.000000,4250.384766,4296.794922,4273.333496,4265.128418,4263.333496,4258.717773,4244.871582,4247.436035,4255.000000,4254.615234,4245.128418,4251.666504,4201.410156,4257.051270,3204.000000,1.000000,15.000000,,,,0.000000,4.000000,4.000000,4.000000,4.000000,4.000000,4.000000,4.000000,4.000000,4.000000,4.000000,4.000000,4.000000,4.000000,4.000000,100.000000,,,,,,,,,,,,,,,,,,,,,,,,,,,,
1649269462.244716,1649269462.263867,106.000000,0.000000,4251.538574,4296.282227,4278.077148,4266.153809,4266.794922,4254.487305,4235.769043,4242.051270,4245.512695,4245.769043,4238.077148,4247.436035,4201.025879,4263.333496,3202.000000,1.000000,15.000000,,,,0.000000,4.000000,4.000000,4.000000,4.000000,4.000000,4.000000,4.000000,4.000000,4.000000,4.000000,4.000000,4.000000,4.000000,4.000000,100.000000,,,,,,,,,,,,,,,,,,,,,,,,,,,,
1649269462.252542,1649269462.271692,107.000000,0.000000,4247.436035,4293.974121,4270.769043,4264.743652,4257.692383,4254.743652,4232.051270,4246.025879,4245.256348,4252.436035,4234.871582,4246.153809,4197.436035,4262.692383,3256.000000,1.000000,15.000000,,,,0.000000,4.000000,4.000000,4.000000,4.000000,4.000000,4.000000,4.000000,4.000000,4.000000,4.000000,4.000000,4.000000,4.000000,4.000000,100.000000,,,,,,,,,,,,,,,,,,,,,,,,,,,,
1649269462.260368,1649269462.279418,108.000000,0.000000,4243.333496,4291.666504,4263.077148,4258.846191,4247.563965,4259.871582,4235.256348,4249.102539,4250.769043,4255.128418,4235.256348,4244.230957,4199.358887,4258.077148,3217.000000,1.000000,15.000000,,,,0.000000,4.000000,4.000000,4.000000,4.000000,4.000000,4.000000,4.000000,4.000000,4.000000,4.000000,4.000000,4.000000,4.000000,4.000000,100.000000,,,,,,,,,,,,,,,,,27.000000,0.000000,0.210490,-0.673950,0.139526,-0.694275,0.882826,-0.472663,0.051270,-32.449837,-113.350121,-3.289845
1649269462.268195,1649269462.287244,109.000000,0.000000,4243.846191,4292.563965,4265.384766,4253.589844,4245.641113,4259.615234,4235.641113,4244.487305,4248.974121,4247.563965,4235.000000,4234.487305,4203.846191,4252.179688,3204.000000,1.000000,15.000000,,,,0.000000,4.000000,4.000000,4.000000,4.000000,4.000000,4.000000,4.000000,4.000000,4.000000,4.000000,4.000000,4.000000,4.000000,4.000000,100.000000,,,,,,,,,,,,,,,,,,,,,,,,,,,,
1649269462.276021,1649269462.294969,110.000000,0.000000,4248.461426,4295.000000,4268.717773,4252.563965,4256.538574,4257.179688,4240.512695,4237.820313,4245.897461,4247.820313,4241.025879,4237.563965,4202.563965,4254.871582,3202.000000,1.000000,15.000000,,,,0.000000,4.000000,4.000000,4.000000,4.000000,4.000000,4.000000,4.000000,4.000000,4.000000,4.000000,4.000000,4.000000,4.000000,4.000000,100.000000,,,,,,,,,,,,,,,,,,,,,,,,,,,,
1649269462.283847,1649269462.302795,111.000000,0.000000,4252.051270,4296.153809,4265.128418,4253.461426,4268.974121,4260.641113,4243.974121,4233.333496,4246.025879,4248.205078,4242.436035,4247.179688,4202.179688,4259.615234,3256.000000,1.000000,15.000000,,,,0.000000,4.000000,4.000000,4.000000,4.000000,4.000000,4.000000,4.000000,4.000000,4.000000,4.000000,4.000000,4.000000,4.000000,4.000000,100.000000,,,,,,,,,,,,,,,,,,,,,,,,,,,,
1649269462.291674,1649269462.310521,112.000000,0.000000,4250.256348,4291.410156,4261.794922,4251.282227,4261.794922,4260.897461,4236.025879,4231.666504,4246.922852,4242.563965,4236.794922,4240.384766,4209.358887,4254.871582,3217.000000,1.000000,15.000000,,,,0.000000,4.000000,4.000000,4.000000,4.000000,4.000000,4.000000,4.000000,4.000000,4.000000,4.000000,4.000000,4.000000,4.000000,4.000000,100.000000,,,,,,,,,,,,,,,,,28.000000,0.000000,0.209235,-0.673523,0.139526,-0.695068,0.883314,-0.493660,0.064942,-33.945221,-112.004272,-2.243076
1649269462.299500,1649269462.318346,113.000000,0.000000,4245.000000,4279.615234,4261.538574,4247.436035,4237.051270,4257.563965,4235.000000,4230.000000,4242.051270,4244.871582,4232.563965,4230.256348,4209.102539,4246.794922,3204.000000,1.000000,15.000000,,,,0.000000,4.000000,4.000000,4.000000,4.000000,4.000000,4.000000,4.000000,4.000000,4.000000,4.000000,4.000000,4.000000,4.000000,4.000000,100.000000,,,,,,,,,,,,,,,,,,,,,,,,,,,,
1649269462.307326,1649269462.326072,114.000000,0.000000,4244.743652,4276.922852,4262.820313,4247.051270,4231.153809,4257.179688,4236.538574,4226.794922,4233.205078,4247.051270,4228.589844,4230.512695,4197.820313,4243.974121,3202.000000,1.000000,15.000000,,,,0.000000,4.000000,4.000000,4.000000,4.000000,4.000000,4.000000,4.000000,4.000000,4.000000,4.000000,4.000000,4.000000,4.000000,4.000000,100.000000,,,,,,,,,,,,,,,,,,,,,,,,,,,,
1649269462.315152,1649269462.333898,115.000000,0.000000,4250.000000,4279.871582,4262.820313,4248.974121,4259.743652,4258.077148,4205.384766,4228.589844,4239.487305,4246.282227,4235.641113,4234.102539,4207.179688,4247.948730,3256.000000,1.000000,15.000000,,,,0.000000,4.000000,4.000000,4.000000,4.000000,4.000000,4.000000,4.000000,4.000000,4.000000,4.000000,4.000000,4.000000,4.000000,4.000000,100.000000,,,,,,,,,,,,,,,,,,,,,,,,,,,,
1649269462.322979,1649269462.341623,116.000000,0.000000,4242.179688,4268.333496,4255.256348,4242.948730,4264.615234,4261.794922,4155.641113,4231.410156,4245.256348,4248.846191,4247.692383,4234.487305,4223.333496,4249.102539,3217.000000,1.000000,15.000000,,,,0.000000,4.000000,4.000000,4.000000,4.000000,4.000000,4.000000,4.000000,4.000000,4.000000,4.000000,4.000000,4.000000,4.000000,4.000000,100.000000,,,,,,,,,,,,,,,,,29.000000,0.000000,0.207810,-0.673157,0.140076,-0.695740,0.895033,-0.473152,0.057618,-32.748913,-112.303352,-4.187076
1649269462.330805,1649269462.349449,117.000000,0.000000,4235.512695,4264.743652,4248.846191,4240.384766,4243.461426,4262.179688,4130.897461,4228.846191,4235.769043,4246.282227,4248.846191,4234.487305,4218.461426,4239.743652,3204.000000,1.000000,15.000000,,,,0.000000,4.000000,4.000000,4.000000,4.000000,4.000000,4.000000,4.000000,4.000000,4.000000,4.000000,4.000000,4.000000,4.000000,4.000000,100.000000,,,,,,,,,,,,,,,,,,,,,,,,,,,,
1649269462.338631,1649269462.357175,118.000000,0.000000,4244.615234,4277.948730,4251.153809,4247.179688,4251.282227,4258.205078,4122.820313,4230.512695,4238.717773,4247.692383,4242.820313,4233.717773,4215.128418,4233.717773,3202.000000,1.000000,15.000000,,,,0.000000,4.000000,4.000000,4.000000,4.000000,4.000000,4.000000,4.000000,4.000000,4.000000,4.000000,4.000000,4.000000,4.000000,4.000000,100.000000,,,,,,,,,,,,,,,,,,,,,,,,,,,,
1649269462.346457,1649269462.365000,119.000000,0.000000,4242.436035,4267.948730,4250.128418,4240.512695,4267.563965,4261.410156,4107.948730,4233.846191,4248.461426,4252.051270,4235.384766,4233.717773,4216.025879,4231.666504,3256.000000,1.000000,15.000000,,,,0.000000,4.000000,4.000000,4.000000,4.000000,4.000000,4.000000,4.000000,4.000000,4.000000,4.000000,4.000000,4.000000,4.000000,4.000000,100.000000,,,,,,,,,,,,,,,,,,,,,,,,,,,,
1649269462.354284,1649269462.372726,120.000000,0.000000,4227.436035,4246.410156,4244.615234,4227.307617,4244.743652,4262.307617,4099.743652,4229.102539,4235.384766,4241.794922,4229.487305,4229.743652,4207.436035,4223.205078,3217.000000,1.000000,15.000000,,,,0.000000,4.000000,4.000000,4.000000,4.000000,4.000000,4.000000,4.000000,4.000000,4.000000,4.000000,4.000000,4.000000,4.000000,4.000000,100.000000,,,,,,,,,,,,,,,,,30.000000,0.000000,0.206620,-0.673157,0.140320,-0.696045,0.896986,-0.477058,0.059571,-32.449837,-113.350121,-5.084306
1649269462.362110,1649269462.380552,121.000000,0.000000,4227.307617,4247.051270,4247.307617,4228.077148,4223.333496,4251.410156,4102.820313,4221.794922,4220.512695,4234.871582,4231.794922,4227.179688,4206.922852,4222.051270,3204.000000,1.000000,15.000000,,,,0.000000,4.000000,4.000000,4.000000,4.000000,4.000000,4.000000,4.000000,4.000000,4.000000,4.000000,4.000000,4.000000,4.000000,4.000000,100.000000,,,,,,,,,,,,,,,,,,,,,,,,,,,,
1649269462.369936,1649269462.388277,122.000000,0.000000,4234.230957,4247.948730,4250.256348,4231.538574,4240.384766,4244.487305,4099.871582,4222.307617,4228.461426,4244.102539,4236.410156,4229.487305,4216.666504,4228.461426,3202.000000,1.000000,15.000000,,,,0.000000,4.000000,4.000000,4.000000,4.000000,4.000000,4.000000,4.000000,4.000000,4.000000,4.000000,4.000000,4.000000,4.000000,4.000000,100.000000,,,,,,,,,,,,,,,,,,,,,,,,,,,,
1649269462.377762,1649269462.396103,123.000000,0.000000,4234.102539,4251.794922,4248.333496,4231.794922,4266.025879,4247.692383,4096.153809,4229.230957,4241.410156,4249.743652,4239.487305,4231.794922,4216.282227,4231.410156,3256.000000,1.000000,15.000000,,,,0.000000,4.000000,4.000000,4.000000,4.000000,4.000000,4.000000,4.000000,4.000000,4.000000,4.000000,4.000000,4.000000,4.000000,4.000000,100.000000,,,,,,,,,,,,,,,,,,,,,,,,,,,,
1649269462.385589,1649269462.403829,124.000000,0.000000,4235.769043,4264.487305,4251.538574,4228.589844,4268.333496,4248.205078,4100.641113,4233.333496,4240.897461,4246.282227,4242.563965,4236.410156,4211.282227,4232.563965,3217.000000,1.000000,15.000000,,,,0.000000,4.000000,4.000000,4.000000,4.000000,4.000000,4.000000,4.000000,4.000000,4.000000,4.000000,4.000000,4.000000,4.000000,4.000000,100.000000,,,,,,,,,,,,,,,,,31.000000,0.000000,0.205466,-0.673218,0.141113,-0.696167,0.903822,-0.477546,0.057130,-33.945221,-113.051041,-3.439384
1649269462.393415,1649269462.411554,125.000000,0.000000,4230.769043,4251.025879,4249.102539,4216.282227,4236.410156,4246.794922,4106.025879,4232.179688,4234.871582,4245.769043,4241.025879,4232.820313,4203.974121,4227.307617,3204.000000,1.000000,15.000000,,,,0.000000,4.000000,4.000000,4.000000,4.000000,4.000000,4.000000,4.000000,4.000000,4.000000,4.000000,4.000000,4.000000,4.000000,4.000000,100.000000,,,,,,,,,,,,,,,,,,,,,,,,,,,,
1649269462.401241,1649269462.419380,126.000000,0.000000,4222.307617,4232.948730,4241.922852,4209.358887,4218.846191,4248.077148,4099.871582,4230.128418,4231.538574,4244.615234,4229.743652,4216.025879,4190.128418,4213.717773,3202.000000,1.000000,15.000000,,,,0.000000,4.000000,4.000000,4.000000,4.000000,4.000000,4.000000,4.000000,4.000000,4.000000,4.000000,4.000000,4.000000,4.000000,4.000000,100.000000,,,,,,,,,,,,,,,,,,,,,,,,,,,,
1649269462.409068,1649269462.427206,127.000000,0.000000,4227.307617,4243.974121,4244.871582,4215.128418,4238.461426,4246.922852,4093.333252,4230.000000,4232.051270,4241.538574,4219.102539,4210.641113,4186.794922,4210.128418,52.000000,1.000000,15.000000,,,,0.000000,4.000000,4.000000,4.000000,4.000000,4.000000,4.000000,4.000000,4.000000,4.000000,4.000000,4.000000,4.000000,4.000000,4.000000,100.000000,,,,,,,,,,,,,,,,,,,,,,,,,,,,
1649269462.416894,1649269462.434931,0.000000,0.000000,4233.974121,4254.230957,4251.153809,4217.051270,4245.000000,4247.307617,4100.256348,4231.410156,4237.563965,4246.025879,4230.384766,4223.461426,4198.717773,4218.205078,2778.000000,1.000000,15.000000,,,,0.000000,4.000000,4.000000,4.000000,4.000000,4.000000,4.000000,4.000000,4.000000,4.000000,4.000000,4.000000,4.000000,4.000000,4.000000,100.000000,,,,,,,,,,,,,,,,,0.000000,0.000000,0.204875,-0.673584,0.142029,-0.695801,0.883314,-0.480964,0.049317,-33.047989,-112.303352,-4.187076
1649269462.424720,1649269462.442657,1.000000,0.000000,4233.589844,4257.179688,4251.153809,4217.436035,4229.358887,4250.641113,4107.179688,4230.512695,4242.820313,4254.230957,4251.794922,4228.717773,4212.051270,4219.743652,3223.000000,1.000000,15.000000,,,,0.000000,4.000000,4.000000,4.000000,4.000000,4.000000,4.000000,4.000000,4.000000,4.000000,4.000000,4.000000,4.000000,4.000000,4.000000,100.000000,,,,,,,,,,,,,,,,,,,,,,,,,,,,
1649269462.432546,1649269462.450483,2.000000,0.000000,4234.230957,4266.153809,4250.641113,4220.512695,4234.743652,4248.333496,4106.538574,4228.333496,4238.333496,4249.230957,4247.563965,4224.743652,4212.436035,4218.974121,3279.000000,1.000000,15.000000,,,,0.000000,4.000000,4.000000,4.000000,4.000000,4.000000,4.000000,4.000000,4.000000,4.000000,4.000000,4.000000,4.000000,4.000000,4.000000,100.000000,,,,,,,,,,,,,,,,,,,,,,,,,,,,
1649269462.440373,1649269462.458308,3.000000,0.000000,4236.282227,4260.897461,4251.922852,4217.692383,4240.128418,4244.487305,4109.102539,4228.333496,4230.256348,4234.230957,4237.948730,4230.769043,4202.051270,4221.538574,2835.000000,1.000000,15.000000,,,,0.000000,4.000000,4.000000,4.000000,4.000000,4.000000,4.000000,4.000000,4.000000,4.000000,4.000000,4.000000,4.000000,4.000000,4.000000,100.000000,,,,,,,,,,,,,,,,,,,,,,,,,,,,
1649269462.448199,1649269462.466034,4.000000,0.000000,4233.333496,4248.333496,4250.256348,4216.282227,4219.615234,4247.692383,4113.846191,4230.512695,4232.179688,4236.410156,4249.743652,4234.615234,4199.871582,4220.000000,3325.000000,1.000000,15.000000,,,,0.000000,4.000000,4.000000,4.000000,4.000000,4.000000,4.000000,4.000000,4.000000,4.000000,4.000000,4.000000,4.000000,4.000000,4.000000,100.000000,,,,,,,,,,,,,,,,,1.000000,0.000000,0.204783,-0.674011,0.142822,-0.695251,0.892103,-0.465827,0.036622,-33.646145,-111.854736,-3.887999
1649269462.456025,1649269462.473760,5.000000,0.000000,4234.487305,4251.282227,4251.153809,4219.358887,4221.794922,4245.000000,4112.436035,4231.666504,4235.384766,4251.666504,4249.102539,4225.128418,4207.948730,4222.563965,3066.000000,1.000000,15.000000,,,,0.000000,4.000000,4.000000,4.000000,4.000000,4.000000,4.000000,4.000000,4.000000,4.000000,4.000000,4.000000,4.000000,4.000000,4.000000,100.000000,,,,,,,,,,,,,,,,,,,,,,,,,,,,
1649269462.463851,1649269462.481585,6.000000,0.000000,4238.461426,4255.641113,4249.230957,4214.615234,4241.153809,4235.000000,4111.666504,4232.563965,4233.846191,4252.563965,4242.436035,4217.307617,4217.563965,4232.563965,3305.000000,1.000000,15.000000,,,,0.000000,4.000000,4.000000,4.000000,4.000000,4.000000,4.000000,4.000000,4.000000,4.000000,4.000000,4.000000,4.000000,4.000000,4.000000,100.000000,,,,,,,,,,,,,,,,,,,,,,,,,,,,
1649269462.471678,1649269462.489411,7.000000,0.000000,4234.743652,4247.948730,4237.179688,4209.230957,4230.384766,4235.256348,4118.461426,4231.666504,4231.922852,4244.487305,4256.410156,4216.538574,4219.871582,4232.436035,3227.000000,1.000000,15.000000,,,,0.000000,4.000000,4.000000,4.000000,4.000000,4.000000,4.000000,4.000000,4.000000,4.000000,4.000000,4.000000,4.000000,4.000000,4.000000,100.000000,,,,,,,,,,,,,,,,,,,,,,,,,,,,
1649269462.479504,1649269462.497137,8.000000,0.000000,4235.128418,4244.743652,4233.589844,4214.102539,4225.256348,4240.769043,4124.487305,4226.025879,4229.358887,4245.128418,4265.897461,4217.436035,4211.410156,4226.538574,4185.000000,1.000000,15.000000,,,,0.000000,4.000000,4.000000,4.000000,4.000000,4.000000,4.000000,4.000000,4.000000,4.000000,4.000000,4.000000,4.000000,4.000000,4.000000,100.000000,,,,,,,,,,,,,,,,,2.000000,0.000000,0.204795,-0.674500,0.142578,-0.694824,0.882826,-0.475105,0.043458,-34.692913,-112.303352,-3.738460
1649269462.487330,1649269462.504862,9.000000,0.000000,4244.487305,4252.820313,4244.871582,4217.820313,4245.897461,4235.128418,4125.256348,4228.205078,4234.871582,4251.025879,4268.077148,4219.743652,4205.769043,4231.666504,3258.000000,1.000000,15.000000,,,,0.000000,4.000000,4.000000,4.000000,4.000000,4.000000,4.000000,4.000000,4.000000,4.000000,4.000000,4.000000,4.000000,4.000000,4.000000,100.000000,,,,,,,,,,,,,,,,,,,,,,,,,,,,
1649269462.495156,1649269462.512688,10.000000,0.000000,4240.000000,4252.307617,4245.769043,4218.846191,4238.717773,4228.846191,4123.077148,4230.769043,4238.461426,4250.641113,4277.179688,4215.512695,4207.436035,4227.307617,3197.000000,1.000000,15.000000,,,,0.000000,4.000000,4.000000,4.000000,4.000000,4.000000,4.000000,4.000000,4.000000,4.000000,4.000000,4.000000,4.000000,4.000000,4.000000,100.000000,,,,,,,,,,,,,,,,,,,,,,,,,,,,
1649269462.502983,1649269462.520514,11.000000,0.000000,4219.358887,4236.410156,4231.025879,4214.487305,4206.922852,4230.256348,4121.282227,4216.922852,4218.717773,4235.897461,4278.846191,4200.769043,4196.538574,4205.512695,3255.000000,1.000000,15.000000,,,,0.000000,4.000000,4.000000,4.000000,4.000000,4.000000,4.000000,4.000000,4.000000,4.000000,4.000000,4.000000,4.000000,4.000000,4.000000,100.000000,,,,,,,,,,,,,,,,,,,,,,,,,,,,
1649269462.510809,1649269462.528239,12.000000,0.000000,4213.717773,4222.563965,4228.589844,4199.102539,4206.922852,4230.512695,4123.461426,4211.025879,4200.256348,4223.333496,4285.128418,4195.769043,4184.743652,4193.974121,3202.000000,1.000000,15.000000,,,,0.000000,4.000000,4.000000,4.000000,4.000000,4.000000,4.000000,4.000000,4.000000,4.000000,4.000000,4.000000,4.000000,4.000000,4.000000,100.000000,,,,,,,,,,,,,,,,,3.000000,0.000000,0.205205,-0.674744,0.141724,-0.694641,0.892103,-0.489754,0.044923,-34.543373,-112.153809,-2.841230
1649269462.518635,1649269462.535965,13.000000,0.000000,4227.948730,4231.538574,4240.256348,4201.794922,4233.589844,4230.000000,4131.410156,4239.743652,4222.307617,4241.922852,4320.384766,4209.871582,4198.205078,4204.615234,3203.000000,1.000000,15.000000,,,,0.000000,4.000000,4.000000,4.000000,4.000000,4.000000,4.000000,4.000000,4.000000,4.000000,4.000000,4.000000,4.000000,4.000000,4.000000,100.000000,,,,,,,,,,,,,,,,,,,,,,,,,,,,
1649269462.526461,1649269462.543691,14.000000,0.000000,4239.871582,4249.871582,4242.307617,4221.153809,4241.666504,4232.436035,4139.487305,4274.230957,4247.948730,4261.153809,4344.871582,4220.512695,4216.538574,4218.717773,3197.000000,1.000000,15.000000,,,,0.000000,4.000000,4.000000,4.000000,4.000000,4.000000,4.000000,4.000000,4.000000,4.000000,4.000000,4.000000,4.000000,4.000000,4.000000,100.000000,,,,,,,,,,,,,,,,,,,,,,,,,,,,
1649269462.534288,1649269462.551516,15.000000,0.000000,4229.487305,4233.461426,4232.820313,4210.512695,4222.563965,4231.538574,4138.846191,4288.589844,4234.615234,4248.077148,4332.692383,4212.307617,4197.948730,4206.666504,3255.000000,1.000000,15.000000,,,,0.000000,4.000000,4.000000,4.000000,4.000000,4.000000,4.000000,4.000000,4.000000,4.000000,4.000000,4.000000,4.000000,4.000000,4.000000,100.000000,,,,,,,,,,,,,,,,,,,,,,,,,,,,
1649269462.542114,1649269462.559242,16.000000,0.000000,4218.333496,4208.077148,4230.512695,4198.974121,4219.487305,4230.128418,4139.615234,4300.384766,4226.025879,4245.769043,4340.512695,4205.769043,4184.871582,4193.717773,0.000000,1.000000,15.000000,,,,0.000000,4.000000,4.000000,4.000000,4.000000,4.000000,4.000000,4.000000,4.000000,4.000000,4.000000,4.000000,4.000000,4.000000,4.000000,100.000000,,,,,,,,,,,,,,,,,4.000000,0.000000,0.205299,-0.674744,0.140686,-0.694824,0.894545,-0.476570,0.050782,-32.748913,-113.499657,-3.738460
1649269462.549940,1649269462.567068,17.000000,0.000000,4240.512695,4247.692383,4242.307617,4226.025879,4252.436035,4232.820313,4150.128418,4314.487305,4247.692383,4267.179688,4383.333496,4220.512695,4210.641113,4221.282227,0.000000,1.000000,15.000000,,,,0.000000,4.000000,4.000000,4.000000,4.000000,4.000000,4.000000,4.000000,4.000000,4.000000,4.000000,4.000000,4.000000,4.000000,4.000000,100.000000,,,,,,,,,,,,,,,,,,,,,,,,,,,,
1649269462.557767,1649269462.574793,18.000000,0.000000,4261.538574,4305.897461,4248.846191,4241.282227,4263.589844,4234.358887,4154.743652,4315.000000,4249.615234,4262.307617,4398.717773,4229.358887,4208.461426,4240.384766,0.000000,1.000000,15.000000,,,,0.000000,4.000000,4.000000,4.000000,4.000000,4.000000,4.000000,4.000000,4.000000,4.000000,4.000000,4.000000,4.000000,4.000000,4.000000,100.000000,,,,,,,,,,,,,,,,,,,,,,,,,,,,
1649269462.565593,1649269462.582619,19.000000,0.000000,4252.820313,4313.974121,4247.948730,4233.333496,4247.820313,4232.307617,4155.256348,4313.333496,4239.102539,4253.205078,4390.769043,4219.358887,4160.384766,4224.871582,0.000000,1.000000,15.000000,,,,0.000000,4.000000,4.000000,4.000000,4.000000,4.000000,4.000000,4.000000,4.000000,4.000000,4.000000,4.000000,4.000000,4.000000,4.000000,100.000000,,,,,,,,,,,,,,,,,,,,,,,,,,,,
1649269462.573419,1649269462.590345,20.000000,0.000000,4245.000000,4326.666504,4246.794922,4248.846191,4261.153809,4231.410156,4163.461426,4319.102539,4247.051270,4261.538574,4403.974121,4215.512695,4125.641113,4221.666504,0.000000,1.000000,15.000000,,,,0.000000,4.000000,4.000000,4.000000,4.000000,4.000000,4.000000,4.000000,4.000000,4.000000,4.000000,4.000000,4.000000,4.000000,4.000000,100.000000,,,,,,,,,,,,,,,,,5.000000,0.000000,0.205712,-0.674683,0.139771,-0.694946,0.898939,-0.480964,0.059571,-32.150761,-112.153809,-3.588922
1649269462.581246,1649269462.598170,21.000000,0.000000,4247.179688,4355.384766,4241.922852,4271.410156,4270.769043,4227.179688,4166.922852,4314.487305,4240.256348,4248.589844,4413.333496,4212.948730,4118.333496,4225.128418,0.000000,1.000000,15.000000,,,,0.000000,4.000000,4.000000,4.000000,4.000000,4.000000,4.000000,4.000000,4.000000,4.000000,4.000000,4.000000,4.000000,4.000000,4.000000,100.000000,0.976563,58.333332,4.000000,3.000000,4.000000,4.000000,4.000000,4.000000,3.000000,4.000000,4.000000,4.000000,3.000000,4.000000,1.000000,4.000000,,,,,,,,,,,,
1649269462.589072,1649269462.605896,22.000000,0.000000,4245.512695,4355.512695,4239.743652,4267.563965,4258.717773,4221.794922,4162.051270,4308.461426,4229.230957,4236.538574,4417.051270,4210.769043,4126.153809,4223.461426,0.000000,1.000000,15.000000,,,,0.000000,4.000000,4.000000,4.000000,4.000000,4.000000,4.000000,4.000000,4.000000,4.000000,4.000000,4.000000,4.000000,4.000000,4.000000,100.000000,,,,,,,,,,,,,,,,,,,,,,,,,,,,
1649269462.596898,1649269462.613722,23.000000,0.000000,4238.974121,4338.846191,4239.487305,4252.179688,4253.077148,4227.436035,4165.769043,4315.512695,4237.820313,4249.358887,4442.307617,4210.897461,4139.102539,4227.436035,0.000000,1.000000,15.000000,,,,0.000000,4.000000,4.000000,4.000000,4.000000,4.000000,4.000000,4.000000,4.000000,4.000000,4.000000,4.000000,4.000000,4.000000,4.000000,100.000000,,,,,,,,,,,,,,,,,,,,,,,,,,,,
1649269462.604724,1649269462.621447,24.000000,0.000000,4235.256348,4333.077148,4240.769043,4251.666504,4262.820313,4231.538574,4178.974121,4316.922852,4233.846191,4248.974121,4464.871582,4204.230957,4131.794922,4222.436035,0.000000,1.000000,15.000000,,,,0.000000,4.000000,4.000000,4.000000,4.000000,4.000000,4.000000,4.000000,4.000000,4.000000,4.000000,4.000000,4.000000,4.000000,4.000000,100.000000,,,,,,,,,,,,,,,,,6.000000,0.000000,0.206260,-0.674805,0.138977,-0.694824,0.880873,-0.489754,0.047852,-32.748913,-112.751968,-4.187076
1649269462.612551,1649269462.629273,25.000000,0.000000,4240.512695,4337.820313,4247.051270,4263.589844,4271.410156,4221.922852,4184.743652,4308.333496,4220.897461,4238.333496,4477.179688,4204.487305,4125.897461,4214.487305,0.000000,1.000000,15.000000,,,,0.000000,4.000000,4.000000,4.000000,4.000000,4.000000,4.000000,4.000000,4.000000,4.000000,4.000000,4.000000,4.000000,4.000000,4.000000,100.000000,,,,,,,,,,,,,,,,,,,,,,,,,,,,
1649269462.620377,1649269462.636999,26.000000,0.000000,4245.384766,4337.692383,4246.025879,4264.487305,4265.256348,4219.102539,4182.948730,4311.410156,4230.256348,4246.282227,4500.769043,4214.743652,4144.743652,4223.846191,0.000000,1.000000,15.000000,,,,0.000000,4.000000,4.000000,4.000000,4.000000,4.000000,4.000000,4.000000,4.000000,4.000000,4.000000,4.000000,4.000000,4.000000,4.000000,100.000000,,,,,,,,,,,,,,,,,,,,,,,,,,,,
1649269462.628203,1649269462.644824,27.000000,0.000000,4234.487305,4325.128418,4235.384766,4259.230957,4258.205078,4228.461426,4183.717773,4325.000000,4238.974121,4249.102539,4515.128418,4209.615234,4138.974121,4219.743652,0.000000,1.000000,15.000000,,,,0.000000,4.000000,4.000000,4.000000,4.000000,4.000000,4.000000,4.000000,4.000000,4.000000,4.000000,4.000000,4.000000,4.000000,4.000000,100.000000,,,,,,,,,,,,,,,,,,,,,,,,,,,,
1649269462.636029,1649269462.652550,28.000000,0.000000,4226.153809,4318.077148,4232.307617,4263.077148,4256.922852,4232.307617,4192.692383,4328.077148,4228.205078,4239.487305,4519.743652,4197.051270,4122.692383,4200.256348,0.000000,1.000000,15.000000,,,,0.000000,4.000000,4.000000,4.000000,4.000000,4.000000,4.000000,4.000000,4.000000,4.000000,4.000000,4.000000,4.000000,4.000000,4.000000,100.000000,,,,,,,,,,,,,,,,,7.000000,0.000000,0.206384,-0.674805,0.138794,-0.694824,0.889662,-0.479011,0.050294,-33.646145,-113.649193,-3.887999
1649269462.643856,1649269462.660376,29.000000,0.000000,4232.436035,4321.153809,4236.153809,4264.230957,4260.512695,4229.871582,4200.769043,4321.666504,4225.000000,4243.333496,4541.538574,4203.205078,4135.384766,4201.025879,0.000000,1.000000,15.000000,,,,0.000000,4.000000,4.000000,4.000000,4.000000,4.000000,4.000000,4.000000,4.000000,4.000000,4.000000,4.000000,4.000000,4.000000,4.000000,100.000000,,,,,,,,,,,,,,,,,,,,,,,,,,,,
1649269462.651682,1649269462.668101,30.000000,0.000000,4231.410156,4312.948730,4233.589844,4262.820313,4263.461426,4228.717773,4199.615234,4319.102539,4228.846191,4246.282227,4557.179688,4206.410156,4141.794922,4205.641113,0.000000,1.000000,15.000000,,,,0.000000,4.000000,4.000000,4.000000,4.000000,4.000000,4.000000,4.000000,4.000000,4.000000,4.000000,4.000000,4.000000,4.000000,4.000000,100.000000,,,,,,,,,,,,,,,,,,,,,,,,,,,,
1649269462.659508,1649269462.675927,31.000000,0.000000,4227.692383,4309.487305,4229.358887,4269.743652,4266.153809,4230.000000,4201.410156,4328.589844,4235.641113,4246.153809,4557.436035,4201.794922,4138.077148,4203.589844,0.000000,1.000000,15.000000,,,,0.000000,4.000000,4.000000,4.000000,4.000000,4.000000,4.000000,4.000000,4.000000,4.000000,4.000000,4.000000,4.000000,4.000000,4.000000,100.000000,,,,,,,,,,,,,,,,,,,,,,,,,,,,
1649269462.667334,1649269462.683653,32.000000,0.000000,4231.794922,4322.179688,4227.307617,4280.128418,4259.871582,4230.897461,4205.769043,4335.000000,4244.871582,4255.000000,4564.102539,4202.051270,4149.615234,4204.230957,0.000000,1.000000,15.000000,,,,0.000000,4.000000,4.000000,4.000000,4.000000,4.000000,4.000000,4.000000,4.000000,4.000000,4.000000,4.000000,4.000000,4.000000,4.000000,100.000000,,,,,,,,,,,,,,,,,8.000000,0.000000,0.207291,-0.674866,0.138672,-0.694519,0.900404,-0.478523,0.053712,-34.692913,-113.051041,-4.486153
1649269462.675161,1649269462.691378,33.000000,0.000000,4233.077148,4326.025879,4229.743652,4283.974121,4258.461426,4232.051270,4208.589844,4331.538574,4247.563965,4261.282227,4567.051270,4202.436035,4158.077148,4206.794922,0.000000,1.000000,15.000000,,,,0.000000,4.000000,4.000000,4.000000,4.000000,4.000000,4.000000,4.000000,4.000000,4.000000,4.000000,4.000000,4.000000,4.000000,4.000000,100.000000,,,,,,,,,,,,,,,,,,,,,,,,,,,,
1649269462.682987,1649269462.699204,34.000000,0.000000,4238.333496,4323.974121,4235.641113,4285.769043,4282.563965,4232.692383,4212.820313,4334.743652,4250.897461,4262.179688,4563.461426,4210.897461,4155.512695,4213.589844,0.000000,1.000000,15.000000,,,,0.000000,4.000000,4.000000,4.000000,4.000000,4.000000,4.000000,4.000000,4.000000,4.000000,4.000000,4.000000,4.000000,4.000000,4.000000,100.000000,,,,,,,,,,,,,,,,,,,,,,,,,,,,
1649269462.690813,1649269462.707030,35.000000,0.000000,4237.436035,4325.256348,4233.974121,4286.794922,4284.230957,4232.307617,4214.102539,4336.282227,4249.871582,4262.820313,4556.922852,4216.282227,4156.282227,4213.974121,0.000000,1.000000,15.000000,,,,0.000000,4.000000,4.000000,4.000000,4.000000,4.000000,4.000000,4.000000,4.000000,4.000000,4.000000,4.000000,4.000000,4.000000,4.000000,100.000000,,,,,,,,,,,,,,,,,,,,,,,,,,,,
1649269462.698640,1649269462.714755,36.000000,0.000000,4220.512695,4321.538574,4229.102539,4284.615234,4255.000000,4230.384766,4211.025879,4327.051270,4237.948730,4255.256348,4541.025879,4206.666504,4153.717773,4201.666504,0.000000,1.000000,15.000000,,,,0.000000,4.000000,4.000000,4.000000,4.000000,4.000000,4.000000,4.000000,4.000000,4.000000,4.000000,4.000000,4.000000,4.000000,4.000000,100.000000,,,,,,,,,,,,,,,,,9.000000,0.000000,0.208820,-0.675110,0.139160,-0.693726,0.895033,-0.489265,0.058595,-33.347065,-115.144577,-3.289845
1649269462.706466,1649269462.722481,37.000000,0.000000,4209.102539,4310.000000,4230.000000,4278.205078,4245.897461,4231.794922,4214.102539,4323.205078,4230.000000,4243.461426,4525.256348,4200.512695,4150.256348,4195.000000,0.000000,1.000000,15.000000,,,,0.000000,4.000000,4.000000,4.000000,4.000000,4.000000,4.000000,4.000000,4.000000,4.000000,4.000000,4.000000,4.000000,4.000000,4.000000,100.000000,,,,,,,,,,,,,,,,,,,,,,,,,,,,
1649269462.714292,1649269462.730307,38.000000,0.000000,4215.384766,4309.358887,4232.436035,4274.230957,4263.205078,4234.358887,4218.461426,4327.948730,4237.820313,4247.179688,4518.846191,4208.205078,4155.256348,4202.692383,0.000000,1.000000,15.000000,,,,0.000000,4.000000,4.000000,4.000000,4.000000,4.000000,4.000000,4.000000,4.000000,4.000000,4.000000,4.000000,4.000000,4.000000,4.000000,100.000000,,,,,,,,,,,,,,,,,,,,,,,,,,,,
1649269462.722118,1649269462.738132,39.000000,0.000000,4217.948730,4320.641113,4231.025879,4280.128418,4272.179688,4231.666504,4218.846191,4327.948730,4246.025879,4254.487305,4506.666504,4214.358887,4157.051270,4204.230957,0.000000,1.000000,15.000000,,,,0.000000,4.000000,4.000000,4.000000,4.000000,4.000000,4.000000,4.000000,4.000000,4.000000,4.000000,4.000000,4.000000,4.000000,4.000000,100.000000,,,,,,,,,,,,,,,,,,,,,,,,,,,,
1649269462.729945,1649269462.745858,40.000000,0.000000,4214.358887,4319.358887,4229.487305,4283.333496,4262.307617,4231.410156,4223.589844,4328.333496,4245.000000,4251.025879,4484.102539,4214.615234,4158.205078,4197.948730,0.000000,1.000000,15.000000,,,,0.000000,4.000000,4.000000,4.000000,4.000000,4.000000,4.000000,4.000000,4.000000,4.000000,4.000000,4.000000,4.000000,4.000000,4.000000,100.000000,,,,,,,,,,,,,,,,,10.000000,0.000000,0.210597,-0.675171,0.140137,-0.692932,0.867689,-0.475105,0.056153,-33.047989,-113.798737,-4.187076
1649269462.737771,1649269462.753584,41.000000,0.000000,4216.922852,4309.487305,4233.461426,4280.256348,4259.230957,4235.641113,4229.743652,4331.922852,4244.615234,4249.230957,4465.769043,4218.846191,4165.384766,4201.025879,0.000000,1.000000,15.000000,,,,0.000000,4.000000,4.000000,4.000000,4.000000,4.000000,4.000000,4.000000,4.000000,4.000000,4.000000,4.000000,4.000000,4.000000,4.000000,100.000000,,,,,,,,,,,,,,,,,,,,,,,,,,,,
1649269462.745597,1649269462.761409,42.000000,0.000000,4218.846191,4309.743652,4238.205078,4279.358887,4273.461426,4233.333496,4230.769043,4327.820313,4246.282227,4253.717773,4448.077148,4220.641113,4168.846191,4205.512695,0.000000,1.000000,15.000000,,,,0.000000,4.000000,4.000000,4.000000,4.000000,4.000000,4.000000,4.000000,4.000000,4.000000,4.000000,4.000000,4.000000,4.000000,4.000000,100.000000,,,,,,,,,,,,,,,,,,,,,,,,,,,,
1649269462.753423,1649269462.769235,43.000000,0.000000,4223.333496,4313.461426,4237.179688,4284.230957,4281.538574,4233.205078,4231.666504,4328.589844,4247.948730,4259.615234,4430.384766,4218.717773,4169.230957,4203.205078,0.000000,1.000000,15.000000,,,,0.000000,4.000000,4.000000,4.000000,4.000000,4.000000,4.000000,4.000000,4.000000,4.000000,4.000000,4.000000,4.000000,4.000000,4.000000,100.000000,,,,,,,,,,,,,,,,,,,,,,,,,,,,
1649269462.761250,1649269462.776961,44.000000,0.000000,4228.333496,4309.102539,4235.128418,4287.692383,4274.871582,4242.692383,4233.461426,4339.102539,4245.384766,4261.410156,4415.128418,4216.282227,4169.230957,4201.922852,0.000000,1.000000,15.000000,,,,0.000000,4.000000,4.000000,4.000000,4.000000,4.000000,4.000000,4.000000,4.000000,4.000000,4.000000,4.000000,4.000000,4.000000,4.000000,100.000000,,,,,,,,,,,,,,,,,11.000000,0.000000,0.212581,-0.675171,0.141357,-0.692078,0.883803,-0.487312,0.048829,-32.748913,-113.051041,-4.486153
1649269462.769076,1649269462.784686,45.000000,0.000000,4224.102539,4307.948730,4235.897461,4283.589844,4256.666504,4243.077148,4232.307617,4337.948730,4245.512695,4264.230957,4393.461426,4215.512695,4169.102539,4203.077148,0.000000,1.000000,15.000000,,,,0.000000,4.000000,4.000000,4.000000,4.000000,4.000000,4.000000,4.000000,4.000000,4.000000,4.000000,4.000000,4.000000,4.000000,4.000000,100.000000,,,,,,,,,,,,,,,,,,,,,,,,,,,,
1649269462.776902,1649269462.792512,46.000000,0.000000,4216.025879,4306.410156,4235.128418,4278.589844,4246.538574,4233.077148,4230.384766,4327.436035,4245.769043,4263.461426,4372.179688,4217.692383,4171.153809,4207.307617,0.000000,1.000000,15.000000,,,,0.000000,4.000000,4.000000,4.000000,4.000000,4.000000,4.000000,4.000000,4.000000,4.000000,4.000000,4.000000,4.000000,4.000000,4.000000,100.000000,,,,,,,,,,,,,,,,,,,,,,,,,,,,
1649269462.784728,1649269462.800338,47.000000,0.000000,4217.051270,4296.666504,4234.487305,4274.487305,4264.487305,4232.692383,4230.512695,4325.256348,4234.615234,4251.282227,4359.358887,4218.077148,4170.897461,4213.333496,0.000000,1.000000,15.000000,,,,0.000000,4.000000,4.000000,4.000000,4.000000,4.000000,4.000000,4.000000,4.000000,4.000000,4.000000,4.000000,4.000000,4.000000,4.000000,100.000000,,,,,,,,,,,,,,,,,,,,,,,,,,,,
1649269462.792555,1649269462.808063,48.000000,0.000000,4225.256348,4299.358887,4239.102539,4278.589844,4280.384766,4239.487305,4232.307617,4327.820313,4234.487305,4249.743652,4348.461426,4218.333496,4172.179688,4215.128418,0.000000,1.000000,15.000000,,,,0.000000,4.000000,4.000000,4.000000,4.000000,4.000000,4.000000,4.000000,4.000000,4.000000,4.000000,4.000000,4.000000,4.000000,4.000000,100.000000,,,,,,,,,,,,,,,,,12.000000,0.000000,0.214401,-0.675354,0.142212,-0.691162,0.876478,-0.494636,0.039551,-32.898453,-112.901505,-3.588922
1649269462.800381,1649269462.815789,49.000000,0.000000,4227.051270,4310.256348,4246.153809,4287.051270,4262.563965,4245.769043,4236.282227,4329.230957,4246.666504,4258.846191,4333.974121,4219.871582,4182.563965,4215.128418,0.000000,1.000000,15.000000,,,,0.000000,4.000000,4.000000,4.000000,4.000000,4.000000,4.000000,4.000000,4.000000,4.000000,4.000000,4.000000,4.000000,4.000000,4.000000,100.000000,,,,,,,,,,,,,,,,,,,,,,,,,,,,
1649269462.808207,1649269462.823615,50.000000,0.000000,4219.743652,4301.666504,4242.563965,4282.563965,4247.051270,4245.641113,4236.666504,4327.692383,4238.717773,4251.922852,4315.256348,4217.563965,4185.512695,4215.384766,0.000000,1.000000,15.000000,,,,0.000000,4.000000,4.000000,4.000000,4.000000,4.000000,4.000000,4.000000,4.000000,4.000000,4.000000,4.000000,4.000000,4.000000,4.000000,100.000000,,,,,,,,,,,,,,,,,,,,,,,,,,,,
