title:Resolver, start timestamp:1649268823.566018, stop timestamp:1649268860.407457, headset type:EPOCPLUS, headset serial:4A2C0467, headset firmware:633, channels:67, sampling rate:eeg_128;mot_32, samples:4711      , version:2.1, 
Timestamp,OriginalTimestamp,EEG.Counter,EEG.Interpolated,EEG.AF3,EEG.F7,EEG.F3,EEG.FC5,EEG.T7,EEG.P7,EEG.O1,EEG.O2,EEG.P8,EEG.T8,EEG.FC6,EEG.F4,EEG.F8,EEG.AF4,EEG.RawCq,EEG.Battery,EEG.BatteryPercent,MarkerIndex,MarkerType,MarkerValueInt,EEG.MarkerHardware,CQ.AF3,CQ.F7,CQ.F3,CQ.FC5,CQ.T7,CQ.P7,CQ.O1,CQ.O2,CQ.P8,CQ.T8,CQ.FC6,CQ.F4,CQ.F8,CQ.AF4,CQ.Overall,EQ.SampleRateQuality,EQ.OVERALL,EQ.AF3,EQ.F7,EQ.F3,EQ.FC5,EQ.T7,EQ.P7,EQ.O1,EQ.O2,EQ.P8,EQ.T8,EQ.FC6,EQ.F4,EQ.F8,EQ.AF4,MOT.CounterMems,MOT.InterpolatedMems,MOT.Q0,MOT.Q1,MOT.Q2,MOT.Q3,MOT.AccX,MOT.AccY,MOT.AccZ,MOT.MagX,MOT.MagY,MOT.MagZ
1649268823.566018,1649268823.590692,29.000000,0.000000,4246.025879,4268.717773,4264.358887,4263.589844,4251.025879,4246.794922,4246.538574,4245.000000,4247.692383,4248.461426,4229.871582,4233.974121,4203.589844,4260.512695,0.000000,3.000000,55.000000,,,,0.000000,4.000000,4.000000,4.000000,4.000000,4.000000,4.000000,4.000000,4.000000,4.000000,4.000000,4.000000,4.000000,4.000000,4.000000,100.000000,,,,,,,,,,,,,,,,,,,,,,,,,,,,
1649268823.573840,1649268823.598417,30.000000,0.000000,4238.846191,4266.794922,4266.794922,4261.410156,4247.692383,4246.410156,4242.179688,4235.384766,4235.256348,4240.769043,4223.717773,4234.102539,4201.025879,4248.846191,0.000000,3.000000,55.000000,,,,0.000000,4.000000,4.000000,4.000000,4.000000,4.000000,4.000000,4.000000,4.000000,4.000000,4.000000,4.000000,4.000000,4.000000,4.000000,100.000000,,,,,,,,,,,,,,,,,,,,,,,,,,,,
1649268823.581662,1649268823.606243,31.000000,0.000000,4243.589844,4273.461426,4272.692383,4263.717773,4246.794922,4246.922852,4246.538574,4244.487305,4233.333496,4234.358887,4228.717773,4245.384766,4201.410156,4255.000000,0.000000,3.000000,55.000000,,,,0.000000,4.000000,4.000000,4.000000,4.000000,4.000000,4.000000,4.000000,4.000000,4.000000,4.000000,4.000000,4.000000,4.000000,4.000000,100.000000,,,,,,,,,,,,,,,,,,,,,,,,,,,,
1649268823.589484,1649268823.613969,32.000000,0.000000,4248.461426,4277.307617,4275.769043,4264.487305,4249.102539,4247.820313,4247.563965,4249.743652,4237.051270,4238.717773,4229.743652,4244.358887,4200.256348,4266.410156,0.000000,3.000000,55.000000,,,,0.000000,4.000000,4.000000,4.000000,4.000000,4.000000,4.000000,4.000000,4.000000,4.000000,4.000000,4.000000,4.000000,4.000000,4.000000,100.000000,,,,,,,,,,,,,,,,,8.000000,0.000000,0.129810,-0.655151,0.185303,-0.720825,0.897475,-0.437507,0.057618,-33.945221,-110.209808,-2.691691
1649268823.597306,1649268823.621694,33.000000,0.000000,4247.692383,4276.410156,4273.846191,4266.153809,4254.871582,4245.769043,4236.153809,4236.025879,4233.205078,4240.128418,4226.794922,4240.512695,4200.641113,4264.487305,0.000000,3.000000,55.000000,,,,0.000000,4.000000,4.000000,4.000000,4.000000,4.000000,4.000000,4.000000,4.000000,4.000000,4.000000,4.000000,4.000000,4.000000,4.000000,100.000000,,,,,,,,,,,,,,,,,,,,,,,,,,,,
1649268823.605128,1649268823.629520,34.000000,0.000000,4247.051270,4281.025879,4274.871582,4273.461426,4266.025879,4245.384766,4234.102539,4231.282227,4236.922852,4241.410156,4229.358887,4246.410156,4210.128418,4264.230957,0.000000,3.000000,55.000000,,,,0.000000,4.000000,4.000000,4.000000,4.000000,4.000000,4.000000,4.000000,4.000000,4.000000,4.000000,4.000000,4.000000,4.000000,4.000000,100.000000,,,,,,,,,,,,,,,,,,,,,,,,,,,,
1649268823.612950,1649268823.637346,35.000000,0.000000,4248.974121,4283.205078,4278.461426,4281.666504,4271.666504,4249.230957,4245.769043,4243.461426,4249.102539,4250.897461,4233.461426,4249.743652,4217.307617,4276.538574,0.000000,3.000000,55.000000,,,,0.000000,4.000000,4.000000,4.000000,4.000000,4.000000,4.000000,4.000000,4.000000,4.000000,4.000000,4.000000,4.000000,4.000000,4.000000,100.000000,,,,,,,,,,,,,,,,,,,,,,,,,,,,
1649268823.620772,1649268823.645071,36.000000,0.000000,4252.692383,4279.487305,4276.538574,4278.589844,4264.871582,4249.102539,4248.461426,4249.487305,4247.563965,4251.153809,4233.846191,4247.820313,4212.948730,4281.410156,0.000000,3.000000,55.000000,,,,0.000000,4.000000,4.000000,4.000000,4.000000,4.000000,4.000000,4.000000,4.000000,4.000000,4.000000,4.000000,4.000000,4.000000,4.000000,100.000000,,,,,,,,,,,,,,,,,9.000000,0.000000,0.130046,-0.654968,0.185547,-0.720886,0.912612,-0.438483,0.078614,-33.047989,-112.303352,-1.644923
1649268823.628594,1649268823.652797,37.000000,0.000000,4250.769043,4278.717773,4272.436035,4267.051270,4259.871582,4245.897461,4242.820313,4247.307617,4239.230957,4241.282227,4228.461426,4246.410156,4207.563965,4269.487305,0.000000,3.000000,55.000000,,,,0.000000,4.000000,4.000000,4.000000,4.000000,4.000000,4.000000,4.000000,4.000000,4.000000,4.000000,4.000000,4.000000,4.000000,4.000000,100.000000,,,,,,,,,,,,,,,,,,,,,,,,,,,,
1649268823.636416,1649268823.660623,38.000000,0.000000,4246.153809,4272.692383,4269.871582,4267.820313,4263.077148,4246.538574,4243.974121,4247.948730,4243.333496,4243.205078,4220.384766,4245.769043,4206.282227,4259.230957,0.000000,3.000000,55.000000,,,,0.000000,4.000000,4.000000,4.000000,4.000000,4.000000,4.000000,4.000000,4.000000,4.000000,4.000000,4.000000,4.000000,4.000000,4.000000,100.000000,,,,,,,,,,,,,,,,,,,,,,,,,,,,
1649268823.644238,1649268823.668448,39.000000,0.000000,4249.102539,4264.743652,4267.307617,4276.538574,4264.871582,4247.051270,4243.974121,4250.512695,4248.205078,4250.256348,4218.974121,4248.846191,4205.128418,4261.794922,0.000000,3.000000,55.000000,,,,0.000000,4.000000,4.000000,4.000000,4.000000,4.000000,4.000000,4.000000,4.000000,4.000000,4.000000,4.000000,4.000000,4.000000,4.000000,100.000000,,,,,,,,,,,,,,,,,,,,,,,,,,,,
1649268823.652060,1649268823.676174,40.000000,0.000000,4251.282227,4262.820313,4263.717773,4269.358887,4256.666504,4244.487305,4235.769043,4248.974121,4237.820313,4241.025879,4219.871582,4244.871582,4200.769043,4262.948730,0.000000,3.000000,55.000000,,,,0.000000,4.000000,4.000000,4.000000,4.000000,4.000000,4.000000,4.000000,4.000000,4.000000,4.000000,4.000000,4.000000,4.000000,4.000000,100.000000,,,,,,,,,,,,,,,,,10.000000,0.000000,0.130587,-0.654724,0.185791,-0.720947,0.905776,-0.445808,0.076661,-32.748913,-110.957504,-1.943999
1649268823.659882,1649268823.683900,41.000000,0.000000,4246.025879,4262.948730,4260.897461,4258.333496,4249.358887,4244.102539,4231.282227,4243.205078,4227.948730,4228.077148,4215.128418,4234.487305,4196.666504,4257.179688,0.000000,3.000000,55.000000,,,,0.000000,4.000000,4.000000,4.000000,4.000000,4.000000,4.000000,4.000000,4.000000,4.000000,4.000000,4.000000,4.000000,4.000000,4.000000,100.000000,,,,,,,,,,,,,,,,,,,,,,,,,,,,
1649268823.667704,1649268823.691725,42.000000,0.000000,4245.769043,4263.205078,4263.974121,4266.025879,4254.615234,4246.538574,4239.487305,4243.205078,4238.589844,4237.563965,4216.025879,4236.666504,4199.615234,4259.743652,0.000000,3.000000,55.000000,,,,0.000000,4.000000,4.000000,4.000000,4.000000,4.000000,4.000000,4.000000,4.000000,4.000000,4.000000,4.000000,4.000000,4.000000,4.000000,100.000000,,,,,,,,,,,,,,,,,,,,,,,,,,,,
1649268823.675526,1649268823.699551,43.000000,0.000000,4249.230957,4264.358887,4267.436035,4273.077148,4264.487305,4246.666504,4246.153809,4249.487305,4243.333496,4247.563965,4218.717773,4246.410156,4201.538574,4263.205078,0.000000,3.000000,55.000000,,,,0.000000,4.000000,4.000000,4.000000,4.000000,4.000000,4.000000,4.000000,4.000000,4.000000,4.000000,4.000000,4.000000,4.000000,4.000000,100.000000,,,,,,,,,,,,,,,,,,,,,,,,,,,,
1649268823.683348,1649268823.707277,44.000000,0.000000,4249.487305,4265.384766,4265.000000,4270.641113,4271.025879,4245.128418,4243.461426,4249.230957,4235.128418,4242.179688,4217.179688,4247.307617,4198.077148,4259.615234,0.000000,3.000000,55.000000,,,,0.000000,4.000000,4.000000,4.000000,4.000000,4.000000,4.000000,4.000000,4.000000,4.000000,4.000000,4.000000,4.000000,4.000000,4.000000,100.000000,,,,,,,,,,,,,,,,,11.000000,0.000000,0.130821,-0.654541,0.186035,-0.721008,0.916030,-0.437507,0.072755,-32.150761,-110.807968,-2.542153
1649268823.691170,1649268823.715002,45.000000,0.000000,4250.769043,4266.025879,4263.717773,4274.487305,4275.128418,4247.692383,4245.641113,4250.256348,4241.666504,4245.128418,4223.974121,4245.769043,4199.358887,4260.641113,0.000000,3.000000,55.000000,,,,0.000000,4.000000,4.000000,4.000000,4.000000,4.000000,4.000000,4.000000,4.000000,4.000000,4.000000,4.000000,4.000000,4.000000,4.000000,100.000000,,,,,,,,,,,,,,,,,,,,,,,,,,,,
1649268823.698992,1649268823.722828,46.000000,0.000000,4248.461426,4264.743652,4265.512695,4273.717773,4277.307617,4250.256348,4249.487305,4254.871582,4254.230957,4252.307617,4233.077148,4247.692383,4204.615234,4259.871582,0.000000,3.000000,55.000000,,,,0.000000,4.000000,4.000000,4.000000,4.000000,4.000000,4.000000,4.000000,4.000000,4.000000,4.000000,4.000000,4.000000,4.000000,4.000000,100.000000,,,,,,,,,,,,,,,,,,,,,,,,,,,,
1649268823.706813,1649268823.730654,47.000000,0.000000,4243.077148,4263.461426,4265.641113,4272.563965,4277.307617,4247.820313,4245.769043,4249.615234,4247.563965,4246.922852,4229.487305,4245.769043,4202.563965,4251.153809,0.000000,3.000000,55.000000,,,,0.000000,4.000000,4.000000,4.000000,4.000000,4.000000,4.000000,4.000000,4.000000,4.000000,4.000000,4.000000,4.000000,4.000000,4.000000,100.000000,,,,,,,,,,,,,,,,,,,,,,,,,,,,
1649268823.714635,1649268823.738379,48.000000,0.000000,4247.692383,4264.230957,4265.641113,4276.666504,4271.025879,4247.179688,4243.077148,4250.897461,4246.922852,4252.436035,4222.948730,4244.230957,4199.102539,4250.512695,0.000000,3.000000,55.000000,,,,0.000000,4.000000,4.000000,4.000000,4.000000,4.000000,4.000000,4.000000,4.000000,4.000000,4.000000,4.000000,4.000000,4.000000,4.000000,100.000000,,,,,,,,,,,,,,,,,12.000000,0.000000,0.131413,-0.654602,0.186584,-0.720703,0.913100,-0.437507,0.084962,-32.449837,-110.807968,-2.841230
1649268823.722458,1649268823.746105,49.000000,0.000000,4257.307617,4263.205078,4265.641113,4272.436035,4261.794922,4249.615234,4246.025879,4266.282227,4259.230957,4268.846191,4227.179688,4243.333496,4204.230957,4261.666504,0.000000,3.000000,55.000000,,,,0.000000,4.000000,4.000000,4.000000,4.000000,4.000000,4.000000,4.000000,4.000000,4.000000,4.000000,4.000000,4.000000,4.000000,4.000000,100.000000,,,,,,,,,,,,,,,,,,,,,,,,,,,,
1649268823.730279,1649268823.753831,50.000000,0.000000,4260.769043,4268.077148,4268.846191,4268.205078,4266.410156,4249.102539,4247.563965,4265.897461,4255.000000,4263.333496,4240.384766,4247.307617,4215.256348,4267.563965,0.000000,3.000000,55.000000,,,,0.000000,4.000000,4.000000,4.000000,4.000000,4.000000,4.000000,4.000000,4.000000,4.000000,4.000000,4.000000,4.000000,4.000000,4.000000,100.000000,,,,,,,,,,,,,,,,,,,,,,,,,,,,
1649268823.738101,1649268823.761656,51.000000,0.000000,4262.307617,4276.410156,4274.230957,4278.333496,4280.256348,4248.589844,4244.230957,4250.641113,4246.025879,4253.717773,4250.256348,4257.948730,4222.563965,4267.436035,0.000000,3.000000,55.000000,,,,0.000000,4.000000,4.000000,4.000000,4.000000,4.000000,4.000000,4.000000,4.000000,4.000000,4.000000,4.000000,4.000000,4.000000,4.000000,100.000000,,,,,,,,,,,,,,,,,,,,,,,,,,,,
1649268823.745923,1649268823.769482,52.000000,0.000000,4262.820313,4273.077148,4272.051270,4286.282227,4283.589844,4248.974121,4238.846191,4248.205078,4248.717773,4257.307617,4246.666504,4257.692383,4218.333496,4266.794922,0.000000,3.000000,55.000000,,,,0.000000,4.000000,4.000000,4.000000,4.000000,4.000000,4.000000,4.000000,4.000000,4.000000,4.000000,4.000000,4.000000,4.000000,4.000000,100.000000,,,,,,,,,,,,,,,,,13.000000,0.000000,0.132030,-0.654846,0.186707,-0.720337,0.890150,-0.430671,0.065431,-31.851683,-110.508888,-2.990768
1649268823.753745,1649268823.777208,53.000000,0.000000,4256.922852,4263.333496,4263.974121,4276.666504,4276.410156,4246.025879,4234.743652,4252.820313,4250.256348,4253.717773,4240.769043,4247.307617,4211.666504,4262.051270,0.000000,3.000000,55.000000,,,,0.000000,4.000000,4.000000,4.000000,4.000000,4.000000,4.000000,4.000000,4.000000,4.000000,4.000000,4.000000,4.000000,4.000000,4.000000,100.000000,,,,,,,,,,,,,,,,,,,,,,,,,,,,
1649268823.761567,1649268823.784933,54.000000,0.000000,4248.333496,4261.153809,4261.538574,4265.256348,4263.717773,4243.461426,4233.333496,4249.615234,4246.922852,4249.871582,4245.897461,4243.846191,4213.846191,4258.333496,0.000000,3.000000,55.000000,,,,0.000000,4.000000,4.000000,4.000000,4.000000,4.000000,4.000000,4.000000,4.000000,4.000000,4.000000,4.000000,4.000000,4.000000,4.000000,100.000000,,,,,,,,,,,,,,,,,,,,,,,,,,,,
1649268823.769389,1649268823.792759,55.000000,0.000000,4243.717773,4262.692383,4263.717773,4263.205078,4257.820313,4245.384766,4233.717773,4246.538574,4248.461426,4254.743652,4251.794922,4244.487305,4216.538574,4258.717773,0.000000,3.000000,55.000000,,,,0.000000,4.000000,4.000000,4.000000,4.000000,4.000000,4.000000,4.000000,4.000000,4.000000,4.000000,4.000000,4.000000,4.000000,4.000000,100.000000,,,,,,,,,,,,,,,,,,,,,,,,,,,,
1649268823.777211,1649268823.800485,56.000000,0.000000,4248.846191,4263.461426,4264.615234,4265.769043,4270.897461,4247.051270,4236.025879,4249.230957,4251.666504,4255.000000,4251.538574,4244.358887,4215.897461,4260.256348,0.000000,3.000000,55.000000,,,,0.000000,4.000000,4.000000,4.000000,4.000000,4.000000,4.000000,4.000000,4.000000,4.000000,4.000000,4.000000,4.000000,4.000000,4.000000,100.000000,,,,,,,,,,,,,,,,,14.000000,0.000000,0.132323,-0.655090,0.186584,-0.720093,0.903334,-0.444831,0.080568,-32.748913,-111.256584,-4.187076
1649268823.785033,1649268823.808310,57.000000,0.000000,4259.615234,4265.128418,4263.333496,4270.000000,4283.461426,4246.666504,4235.769043,4250.897461,4251.153809,4254.743652,4250.769043,4249.230957,4218.461426,4262.307617,0.000000,3.000000,55.000000,,,,0.000000,4.000000,4.000000,4.000000,4.000000,4.000000,4.000000,4.000000,4.000000,4.000000,4.000000,4.000000,4.000000,4.000000,4.000000,100.000000,,,,,,,,,,,,,,,,,,,,,,,,,,,,
1649268823.792855,1649268823.816036,58.000000,0.000000,4262.563965,4263.461426,4266.153809,4274.743652,4279.102539,4245.512695,4233.205078,4249.358887,4249.743652,4255.897461,4252.436035,4248.589844,4217.563965,4258.077148,0.000000,3.000000,55.000000,,,,0.000000,4.000000,4.000000,4.000000,4.000000,4.000000,4.000000,4.000000,4.000000,4.000000,4.000000,4.000000,4.000000,4.000000,4.000000,100.000000,,,,,,,,,,,,,,,,,,,,,,,,,,,,
1649268823.800677,1649268823.823862,59.000000,0.000000,4260.512695,4262.179688,4273.333496,4279.871582,4276.794922,4247.436035,4236.922852,4251.538574,4246.410156,4250.384766,4258.461426,4247.436035,4218.333496,4253.589844,0.000000,3.000000,55.000000,,,,0.000000,4.000000,4.000000,4.000000,4.000000,4.000000,4.000000,4.000000,4.000000,4.000000,4.000000,4.000000,4.000000,4.000000,4.000000,100.000000,,,,,,,,,,,,,,,,,,,,,,,,,,,,
1649268823.808499,1649268823.831587,60.000000,0.000000,4262.948730,4264.743652,4273.205078,4280.128418,4278.974121,4251.410156,4246.025879,4260.256348,4247.820313,4253.717773,4261.025879,4254.358887,4227.563965,4260.512695,0.000000,3.000000,55.000000,,,,0.000000,4.000000,4.000000,4.000000,4.000000,4.000000,4.000000,4.000000,4.000000,4.000000,4.000000,4.000000,4.000000,4.000000,4.000000,100.000000,,,,,,,,,,,,,,,,,15.000000,0.000000,0.132841,-0.655273,0.186279,-0.719910,0.889174,-0.440925,0.066896,-32.150761,-109.611656,-2.841230
1649268823.816321,1649268823.839413,61.000000,0.000000,4263.205078,4265.769043,4265.512695,4278.333496,4275.641113,4250.128418,4246.922852,4264.871582,4251.410156,4263.846191,4253.333496,4252.948730,4228.333496,4262.948730,0.000000,3.000000,55.000000,,,,0.000000,4.000000,4.000000,4.000000,4.000000,4.000000,4.000000,4.000000,4.000000,4.000000,4.000000,4.000000,4.000000,4.000000,4.000000,100.000000,,,,,,,,,,,,,,,,,,,,,,,,,,,,
1649268823.824143,1649268823.847139,62.000000,0.000000,4258.333496,4265.769043,4262.307617,4275.897461,4275.000000,4246.153809,4237.436035,4257.179688,4248.333496,4257.179688,4246.410156,4246.538574,4221.025879,4251.282227,0.000000,3.000000,55.000000,,,,0.000000,4.000000,4.000000,4.000000,4.000000,4.000000,4.000000,4.000000,4.000000,4.000000,4.000000,4.000000,4.000000,4.000000,4.000000,100.000000,,,,,,,,,,,,,,,,,,,,,,,,,,,,
1649268823.831965,1649268823.854964,63.000000,0.000000,4260.000000,4266.025879,4263.846191,4273.717773,4280.256348,4247.051270,4232.563965,4248.974121,4246.282227,4251.794922,4250.641113,4247.563965,4225.000000,4251.025879,0.000000,3.000000,55.000000,,,,0.000000,4.000000,4.000000,4.000000,4.000000,4.000000,4.000000,4.000000,4.000000,4.000000,4.000000,4.000000,4.000000,4.000000,4.000000,100.000000,,,,,,,,,,,,,,,,,,,,,,,,,,,,
1649268823.839787,1649268823.862690,64.000000,0.000000,4262.948730,4264.358887,4265.000000,4276.794922,4280.641113,4249.230957,4235.384766,4248.077148,4250.512695,4260.384766,4251.538574,4250.512695,4233.333496,4263.589844,2746.000000,3.000000,55.000000,,,,0.000000,4.000000,4.000000,4.000000,4.000000,4.000000,4.000000,4.000000,4.000000,4.000000,4.000000,4.000000,4.000000,4.000000,4.000000,100.000000,,,,,,,,,,,,,,,,,16.000000,0.000000,0.132882,-0.655334,0.186035,-0.719910,0.910170,-0.457527,0.070802,-33.646145,-111.107040,-2.542153
1649268823.847609,1649268823.870516,65.000000,0.000000,4260.384766,4262.948730,4265.769043,4278.974121,4277.692383,4244.871582,4233.974121,4245.897461,4251.922852,4263.205078,4247.436035,4250.384766,4231.153809,4264.487305,3535.000000,3.000000,55.000000,,,,0.000000,4.000000,4.000000,4.000000,4.000000,4.000000,4.000000,4.000000,4.000000,4.000000,4.000000,4.000000,4.000000,4.000000,4.000000,100.000000,,,,,,,,,,,,,,,,,,,,,,,,,,,,
1649268823.855431,1649268823.878241,66.000000,0.000000,4262.692383,4266.666504,4263.077148,4276.410156,4276.666504,4242.179688,4230.384766,4242.563965,4248.077148,4260.512695,4251.538574,4249.102539,4233.974121,4261.538574,3583.000000,3.000000,55.000000,,,,0.000000,4.000000,4.000000,4.000000,4.000000,4.000000,4.000000,4.000000,4.000000,4.000000,4.000000,4.000000,4.000000,4.000000,4.000000,100.000000,,,,,,,,,,,,,,,,,,,,,,,,,,,,
1649268823.863253,1649268823.886067,67.000000,0.000000,4265.384766,4269.102539,4260.256348,4275.769043,4276.025879,4246.025879,4231.410156,4245.000000,4248.461426,4262.820313,4256.282227,4245.897461,4241.025879,4266.153809,3298.000000,3.000000,55.000000,,,,0.000000,4.000000,4.000000,4.000000,4.000000,4.000000,4.000000,4.000000,4.000000,4.000000,4.000000,4.000000,4.000000,4.000000,4.000000,100.000000,,,,,,,,,,,,,,,,,,,,,,,,,,,,
1649268823.871075,1649268823.893793,68.000000,0.000000,4261.538574,4262.692383,4260.128418,4275.641113,4278.589844,4244.358887,4232.820313,4247.692383,4251.794922,4264.615234,4250.384766,4244.358887,4236.666504,4261.666504,3620.000000,3.000000,55.000000,,,,0.000000,4.000000,4.000000,4.000000,4.000000,4.000000,4.000000,4.000000,4.000000,4.000000,4.000000,4.000000,4.000000,4.000000,4.000000,100.000000,,,,,,,,,,,,,,,,,17.000000,0.000000,0.132838,-0.655396,0.185852,-0.719910,0.888197,-0.442390,0.077638,-32.898453,-111.107040,-1.345846
1649268823.878897,1649268823.901618,69.000000,0.000000,4261.282227,4258.077148,4260.897461,4269.358887,4278.461426,4240.128418,4231.922852,4245.512695,4250.000000,4258.333496,4245.128418,4246.025879,4229.487305,4248.589844,3420.000000,3.000000,55.000000,,,,0.000000,4.000000,4.000000,4.000000,4.000000,4.000000,4.000000,4.000000,4.000000,4.000000,4.000000,4.000000,4.000000,4.000000,4.000000,100.000000,,,,,,,,,,,,,,,,,,,,,,,,,,,,
1649268823.886719,1649268823.909344,70.000000,0.000000,4265.000000,4262.179688,4263.974121,4264.230957,4264.871582,4242.563965,4234.230957,4247.436035,4248.589844,4259.743652,4248.589844,4245.128418,4230.128418,4247.436035,3530.000000,3.000000,55.000000,,,,0.000000,4.000000,4.000000,4.000000,4.000000,4.000000,4.000000,4.000000,4.000000,4.000000,4.000000,4.000000,4.000000,4.000000,4.000000,100.000000,,,,,,,,,,,,,,,,,,,,,,,,,,,,
1649268823.894541,1649268823.917170,71.000000,0.000000,4263.205078,4262.948730,4265.128418,4265.512695,4255.769043,4244.230957,4234.358887,4247.820313,4249.230957,4263.077148,4250.256348,4241.794922,4233.205078,4251.666504,3630.000000,3.000000,55.000000,,,,0.000000,4.000000,4.000000,4.000000,4.000000,4.000000,4.000000,4.000000,4.000000,4.000000,4.000000,4.000000,4.000000,4.000000,4.000000,100.000000,,,,,,,,,,,,,,,,,,,,,,,,,,,,
1649268823.902362,1649268823.924895,72.000000,0.000000,4260.641113,4259.743652,4262.436035,4263.846191,4268.846191,4241.922852,4232.179688,4243.717773,4245.897461,4250.897461,4246.538574,4237.820313,4232.051270,4249.230957,3578.000000,3.000000,55.000000,,,,0.000000,4.000000,4.000000,4.000000,4.000000,4.000000,4.000000,4.000000,4.000000,4.000000,4.000000,4.000000,4.000000,4.000000,4.000000,100.000000,,,,,,,,,,,,,,,,,18.000000,0.000000,0.132938,-0.655273,0.185974,-0.719971,0.903822,-0.454597,0.089357,-34.543373,-111.107040,-2.093538
1649268823.910185,1649268823.932721,73.000000,0.000000,4261.282227,4260.000000,4261.666504,4264.102539,4282.179688,4245.641113,4232.179688,4245.641113,4248.077148,4249.743652,4248.333496,4240.128418,4231.410156,4246.666504,3702.000000,3.000000,55.000000,,,,0.000000,4.000000,4.000000,4.000000,4.000000,4.000000,4.000000,4.000000,4.000000,4.000000,4.000000,4.000000,4.000000,4.000000,4.000000,100.000000,,,,,,,,,,,,,,,,,,,,,,,,,,,,
1649268823.918007,1649268823.940447,74.000000,0.000000,4260.897461,4261.538574,4263.589844,4276.410156,4279.358887,4249.871582,4234.743652,4249.358887,4253.717773,4264.743652,4254.871582,4247.820313,4232.692383,4248.717773,3439.000000,3.000000,55.000000,,,,0.000000,4.000000,4.000000,4.000000,4.000000,4.000000,4.000000,4.000000,4.000000,4.000000,4.000000,4.000000,4.000000,4.000000,4.000000,100.000000,,,,,,,,,,,,,,,,,,,,,,,,,,,,
1649268823.925828,1649268823.948272,75.000000,0.000000,4260.897461,4261.410156,4262.307617,4280.769043,4272.307617,4247.051270,4238.717773,4246.410156,4243.589844,4255.128418,4247.692383,4243.205078,4231.538574,4249.615234,3594.000000,3.000000,55.000000,,,,0.000000,4.000000,4.000000,4.000000,4.000000,4.000000,4.000000,4.000000,4.000000,4.000000,4.000000,4.000000,4.000000,4.000000,4.000000,100.000000,,,,,,,,,,,,,,,,,,,,,,,,,,,,
1649268823.933650,1649268823.955998,76.000000,0.000000,4263.077148,4261.538574,4262.051270,4269.230957,4268.589844,4245.641113,4241.025879,4244.102539,4234.743652,4234.871582,4234.358887,4235.000000,4228.589844,4250.384766,3531.000000,3.000000,55.000000,,,,0.000000,4.000000,4.000000,4.000000,4.000000,4.000000,4.000000,4.000000,4.000000,4.000000,4.000000,4.000000,4.000000,4.000000,4.000000,100.000000,,,,,,,,,,,,,,,,,19.000000,0.000000,0.132506,-0.655090,0.186218,-0.720154,0.912612,-0.442878,0.067872,-32.449837,-110.359352,-0.598154
1649268823.941472,1649268823.963724,77.000000,0.000000,4266.025879,4259.743652,4264.230957,4263.589844,4264.487305,4246.025879,4242.692383,4242.692383,4242.051270,4243.589844,4240.000000,4241.666504,4229.358887,4250.641113,3396.000000,3.000000,55.000000,,,,0.000000,4.000000,4.000000,4.000000,4.000000,4.000000,4.000000,4.000000,4.000000,4.000000,4.000000,4.000000,4.000000,4.000000,4.000000,100.000000,,,,,,,,,,,,,,,,,,,,,,,,,,,,
1649268823.949294,1649268823.971549,78.000000,0.000000,4268.333496,4261.025879,4265.128418,4268.333496,4264.615234,4246.025879,4246.025879,4240.384766,4245.512695,4252.436035,4248.205078,4248.717773,4234.487305,4248.974121,3439.000000,3.000000,55.000000,,,,0.000000,4.000000,4.000000,4.000000,4.000000,4.000000,4.000000,4.000000,4.000000,4.000000,4.000000,4.000000,4.000000,4.000000,4.000000,100.000000,,,,,,,,,,,,,,,,,,,,,,,,,,,,
1649268823.957116,1649268823.979375,79.000000,0.000000,4267.051270,4259.487305,4266.282227,4267.948730,4270.000000,4247.307617,4246.794922,4242.948730,4241.410156,4243.333496,4237.051270,4246.410156,4233.589844,4249.358887,3594.000000,3.000000,55.000000,,,,0.000000,4.000000,4.000000,4.000000,4.000000,4.000000,4.000000,4.000000,4.000000,4.000000,4.000000,4.000000,4.000000,4.000000,4.000000,100.000000,,,,,,,,,,,,,,,,,,,,,,,,,,,,
1649268823.964938,1649268823.987101,80.000000,0.000000,4263.205078,4251.153809,4265.769043,4263.333496,4276.922852,4247.307617,4243.974121,4244.358887,4243.077148,4244.743652,4227.436035,4246.025879,4228.077148,4249.102539,3531.000000,3.000000,55.000000,,,,0.000000,4.000000,4.000000,4.000000,4.000000,4.000000,4.000000,4.000000,4.000000,4.000000,4.000000,4.000000,4.000000,4.000000,4.000000,100.000000,,,,,,,,,,,,,,,,,20.000000,0.000000,0.132274,-0.654968,0.186340,-0.720276,0.908217,-0.444831,0.071290,-34.991989,-111.256584,-1.644923
1649268823.972760,1649268823.994826,81.000000,0.000000,4264.102539,4253.589844,4262.692383,4265.384766,4280.128418,4247.436035,4244.743652,4241.794922,4247.692383,4252.179688,4231.538574,4246.794922,4229.615234,4247.307617,3396.000000,3.000000,55.000000,,,,0.000000,4.000000,4.000000,4.000000,4.000000,4.000000,4.000000,4.000000,4.000000,4.000000,4.000000,4.000000,4.000000,4.000000,4.000000,100.000000,,,,,,,,,,,,,,,,,,,,,,,,,,,,
1649268823.980582,1649268824.002652,82.000000,0.000000,4266.410156,4257.179688,4261.153809,4265.128418,4268.077148,4248.077148,4244.487305,4241.538574,4246.153809,4246.538574,4232.948730,4244.102539,4231.666504,4248.461426,3439.000000,3.000000,55.000000,,,,0.000000,4.000000,4.000000,4.000000,4.000000,4.000000,4.000000,4.000000,4.000000,4.000000,4.000000,4.000000,4.000000,4.000000,4.000000,100.000000,,,,,,,,,,,,,,,,,,,,,,,,,,,,
1649268823.988404,1649268824.010478,83.000000,0.000000,4265.000000,4251.282227,4261.282227,4260.641113,4260.897461,4246.410156,4236.666504,4242.436035,4245.128418,4243.846191,4235.512695,4242.820313,4230.256348,4249.615234,3594.000000,3.000000,55.000000,,,,0.000000,4.000000,4.000000,4.000000,4.000000,4.000000,4.000000,4.000000,4.000000,4.000000,4.000000,4.000000,4.000000,4.000000,4.000000,100.000000,,,,,,,,,,,,,,,,,,,,,,,,,,,,
1649268823.996226,1649268824.018303,84.000000,0.000000,4264.230957,4255.256348,4262.692383,4262.948730,4272.436035,4245.128418,4232.051270,4243.077148,4253.717773,4257.307617,4245.512695,4245.769043,4232.436035,4252.179688,3531.000000,3.000000,55.000000,,,,0.000000,4.000000,4.000000,4.000000,4.000000,4.000000,4.000000,4.000000,4.000000,4.000000,4.000000,4.000000,4.000000,4.000000,4.000000,100.000000,,,,,,,,,,,,,,,,,21.000000,0.000000,0.132188,-0.654968,0.186401,-0.720276,0.912123,-0.435554,0.078614,-32.748913,-109.761200,-2.990768
1649268824.004048,1649268824.026029,85.000000,0.000000,4267.051270,4266.538574,4265.384766,4268.717773,4274.102539,4245.769043,4235.641113,4246.666504,4259.102539,4261.282227,4245.769043,4248.589844,4236.025879,4255.641113,3396.000000,3.000000,55.000000,,,,0.000000,4.000000,4.000000,4.000000,4.000000,4.000000,4.000000,4.000000,4.000000,4.000000,4.000000,4.000000,4.000000,4.000000,4.000000,100.000000,0.976563,75.000000,4.000000,4.000000,4.000000,4.000000,4.000000,1.000000,4.000000,4.000000,4.000000,4.000000,4.000000,4.000000,4.000000,4.000000,,,,,,,,,,,,
1649268824.011870,1649268824.033855,86.000000,0.000000,4267.179688,4260.897461,4263.717773,4266.922852,4262.307617,4244.358887,4236.282227,4245.769043,4250.000000,4243.589844,4234.871582,4246.922852,4232.948730,4252.179688,3439.000000,3.000000,55.000000,,,,0.000000,4.000000,4.000000,4.000000,4.000000,4.000000,4.000000,4.000000,4.000000,4.000000,4.000000,4.000000,4.000000,4.000000,4.000000,100.000000,,,,,,,,,,,,,,,,,,,,,,,,,,,,
1649268824.019692,1649268824.041680,87.000000,0.000000,4265.512695,4247.948730,4259.743652,4261.538574,4262.948730,4242.563965,4234.615234,4242.820313,4243.461426,4239.102539,4230.256348,4243.589844,4228.589844,4246.794922,3594.000000,3.000000,55.000000,,,,0.000000,4.000000,4.000000,4.000000,4.000000,4.000000,4.000000,4.000000,4.000000,4.000000,4.000000,4.000000,4.000000,4.000000,4.000000,100.000000,,,,,,,,,,,,,,,,,,,,,,,,,,,,
1649268824.027514,1649268824.049406,88.000000,0.000000,4265.384766,4244.102539,4258.461426,4261.025879,4264.102539,4244.487305,4239.230957,4247.820313,4247.948730,4249.743652,4229.102539,4244.871582,4228.974121,4248.077148,3531.000000,3.000000,55.000000,,,,0.000000,4.000000,4.000000,4.000000,4.000000,4.000000,4.000000,4.000000,4.000000,4.000000,4.000000,4.000000,4.000000,4.000000,4.000000,100.000000,,,,,,,,,,,,,,,,,22.000000,0.000000,0.132274,-0.654968,0.186340,-0.720276,0.904311,-0.443366,0.073732,-33.945221,-109.462120,-2.243076
1649268824.035336,1649268824.057132,89.000000,0.000000,4264.871582,4245.128418,4256.538574,4259.487305,4251.025879,4246.153809,4243.205078,4249.871582,4249.743652,4249.743652,4230.897461,4247.051270,4231.922852,4248.974121,3396.000000,3.000000,55.000000,,,,0.000000,4.000000,4.000000,4.000000,4.000000,4.000000,4.000000,4.000000,4.000000,4.000000,4.000000,4.000000,4.000000,4.000000,4.000000,100.000000,,,,,,,,,,,,,,,,,,,,,,,,,,,,
1649268824.043158,1649268824.064957,90.000000,0.000000,4266.666504,4247.692383,4255.769043,4259.358887,4252.820313,4245.897461,4242.820313,4241.410156,4248.974121,4249.615234,4239.487305,4246.794922,4232.948730,4245.256348,3439.000000,3.000000,55.000000,,,,0.000000,4.000000,4.000000,4.000000,4.000000,4.000000,4.000000,4.000000,4.000000,4.000000,4.000000,4.000000,4.000000,4.000000,4.000000,100.000000,,,,,,,,,,,,,,,,,,,,,,,,,,,,
1649268824.050980,1649268824.072783,91.000000,0.000000,4266.794922,4247.436035,4253.333496,4264.358887,4267.307617,4245.384766,4243.077148,4238.461426,4249.358887,4256.025879,4240.512695,4241.410156,4232.948730,4244.743652,3594.000000,3.000000,55.000000,,,,0.000000,4.000000,4.000000,4.000000,4.000000,4.000000,4.000000,4.000000,4.000000,4.000000,4.000000,4.000000,4.000000,4.000000,4.000000,100.000000,,,,,,,,,,,,,,,,,,,,,,,,,,,,
1649268824.058802,1649268824.080409,92.000000,0.000000,4264.615234,4244.743652,4245.256348,4265.384766,4263.846191,4244.743652,4241.666504,4245.769043,4248.077148,4251.025879,4234.871582,4235.641113,4235.256348,4246.794922,3531.000000,3.000000,55.000000,,,,0.000000,4.000000,4.000000,4.000000,4.000000,4.000000,4.000000,4.000000,4.000000,4.000000,4.000000,4.000000,4.000000,4.000000,4.000000,100.000000,,,,,,,,,,,,,,,,,23.000000,0.000000,0.132692,-0.654968,0.186279,-0.720215,0.903822,-0.441901,0.079591,-32.300297,-111.256584,-2.691691
1649268824.066624,1649268824.088234,93.000000,0.000000,4270.000000,4247.563965,4248.461426,4260.128418,4257.051270,4245.641113,4242.820313,4248.205078,4250.000000,4248.461426,4234.230957,4238.717773,4237.436035,4247.179688,3396.000000,3.000000,55.000000,,,,0.000000,4.000000,4.000000,4.000000,4.000000,4.000000,4.000000,4.000000,4.000000,4.000000,4.000000,4.000000,4.000000,4.000000,4.000000,100.000000,,,,,,,,,,,,,,,,,,,,,,,,,,,,
1649268824.074446,1649268824.095960,94.000000,0.000000,4279.102539,4247.179688,4259.743652,4259.487305,4259.487305,4246.922852,4245.769043,4245.897461,4251.922852,4254.743652,4234.230957,4244.487305,4235.128418,4247.948730,3439.000000,3.000000,55.000000,,,,0.000000,4.000000,4.000000,4.000000,4.000000,4.000000,4.000000,4.000000,4.000000,4.000000,4.000000,4.000000,4.000000,4.000000,4.000000,100.000000,,,,,,,,,,,,,,,,,,,,,,,,,,,,
1649268824.082268,1649268824.103786,95.000000,0.000000,4280.384766,4240.256348,4258.589844,4263.461426,4258.717773,4245.897461,4241.153809,4245.256348,4249.743652,4251.538574,4232.307617,4245.256348,4232.692383,4245.128418,3594.000000,3.000000,55.000000,,,,0.000000,4.000000,4.000000,4.000000,4.000000,4.000000,4.000000,4.000000,4.000000,4.000000,4.000000,4.000000,4.000000,4.000000,4.000000,100.000000,,,,,,,,,,,,,,,,,,,,,,,,,,,,
1649268824.090090,1649268824.111511,96.000000,0.000000,4277.307617,4235.512695,4254.871582,4260.769043,4256.282227,4244.358887,4239.871582,4242.692383,4247.820313,4243.589844,4232.307617,4243.846191,4230.128418,4238.974121,3531.000000,3.000000,55.000000,,,,0.000000,4.000000,4.000000,4.000000,4.000000,4.000000,4.000000,4.000000,4.000000,4.000000,4.000000,4.000000,4.000000,4.000000,4.000000,100.000000,,,,,,,,,,,,,,,,,24.000000,0.000000,0.132532,-0.654968,0.186157,-0.720276,0.904311,-0.445319,0.066896,-32.898453,-111.406120,-2.093538
1649268824.097912,1649268824.119337,97.000000,0.000000,4277.179688,4234.871582,4260.128418,4256.025879,4257.563965,4243.077148,4242.692383,4240.512695,4245.897461,4240.897461,4229.871582,4235.769043,4226.538574,4231.538574,3396.000000,3.000000,55.000000,,,,0.000000,4.000000,4.000000,4.000000,4.000000,4.000000,4.000000,4.000000,4.000000,4.000000,4.000000,4.000000,4.000000,4.000000,4.000000,100.000000,,,,,,,,,,,,,,,,,,,,,,,,,,,,
1649268824.105734,1649268824.127063,98.000000,0.000000,4278.846191,4239.102539,4263.974121,4259.743652,4259.743652,4244.358887,4239.230957,4245.000000,4246.666504,4243.717773,4231.282227,4230.384766,4228.846191,4231.538574,3439.000000,3.000000,55.000000,,,,0.000000,4.000000,4.000000,4.000000,4.000000,4.000000,4.000000,4.000000,4.000000,4.000000,4.000000,4.000000,4.000000,4.000000,4.000000,100.000000,,,,,,,,,,,,,,,,,,,,,,,,,,,,
1649268824.113556,1649268824.134888,99.000000,0.000000,4280.256348,4246.794922,4260.000000,4259.615234,4258.974121,4246.410156,4236.538574,4249.615234,4250.641113,4249.743652,4235.384766,4238.846191,4232.307617,4238.461426,3594.000000,3.000000,55.000000,,,,0.000000,4.000000,4.000000,4.000000,4.000000,4.000000,4.000000,4.000000,4.000000,4.000000,4.000000,4.000000,4.000000,4.000000,4.000000,100.000000,,,,,,,,,,,,,,,,,,,,,,,,,,,,
1649268824.121378,1649268824.142714,100.000000,0.000000,4279.102539,4246.922852,4258.333496,4252.692383,4253.717773,4244.102539,4239.358887,4247.307617,4248.974121,4250.000000,4231.922852,4245.384766,4230.512695,4244.743652,3531.000000,3.000000,55.000000,,,,0.000000,4.000000,4.000000,4.000000,4.000000,4.000000,4.000000,4.000000,4.000000,4.000000,4.000000,4.000000,4.000000,4.000000,4.000000,100.000000,,,,,,,,,,,,,,,,,25.000000,0.000000,0.132562,-0.655029,0.186157,-0.720215,0.896498,-0.437995,0.070314,-32.300297,-110.957504,-2.243076
1649268824.129199,1649268824.150440,101.000000,0.000000,4277.179688,4237.179688,4259.743652,4250.897461,4250.128418,4241.666504,4243.077148,4245.512695,4243.077148,4244.487305,4237.179688,4246.666504,4231.025879,4243.333496,3396.000000,3.000000,55.000000,,,,0.000000,4.000000,4.000000,4.000000,4.000000,4.000000,4.000000,4.000000,4.000000,4.000000,4.000000,4.000000,4.000000,4.000000,4.000000,100.000000,,,,,,,,,,,,,,,,,,,,,,,,,,,,
1649268824.137021,1649268824.158165,102.000000,0.000000,4276.922852,4235.256348,4255.000000,4253.717773,4252.051270,4245.256348,4245.384766,4246.666504,4245.128418,4247.820313,4246.922852,4245.256348,4230.641113,4235.384766,3439.000000,3.000000,55.000000,,,,0.000000,4.000000,4.000000,4.000000,4.000000,4.000000,4.000000,4.000000,4.000000,4.000000,4.000000,4.000000,4.000000,4.000000,4.000000,100.000000,,,,,,,,,,,,,,,,,,,,,,,,,,,,
1649268824.144843,1649268824.165991,103.000000,0.000000,4267.436035,4238.333496,4245.769043,4247.563965,4251.282227,4243.717773,4244.615234,4243.974121,4245.641113,4248.974121,4241.794922,4235.384766,4222.563965,4233.077148,3594.000000,3.000000,55.000000,,,,0.000000,4.000000,4.000000,4.000000,4.000000,4.000000,4.000000,4.000000,4.000000,4.000000,4.000000,4.000000,4.000000,4.000000,4.000000,100.000000,,,,,,,,,,,,,,,,,,,,,,,,,,,,
1649268824.152665,1649268824.173717,104.000000,0.000000,4248.974121,4224.743652,4243.846191,4233.717773,4244.743652,4235.128418,4242.436035,4241.922852,4234.487305,4234.871582,4229.230957,4227.563965,4212.179688,4227.436035,3531.000000,3.000000,55.000000,,,,0.000000,4.000000,4.000000,4.000000,4.000000,4.000000,4.000000,4.000000,4.000000,4.000000,4.000000,4.000000,4.000000,4.000000,4.000000,100.000000,,,,,,,,,,,,,,,,,26.000000,0.000000,0.132316,-0.655029,0.186096,-0.720276,0.894545,-0.435554,0.082521,-34.842449,-111.107040,-2.542153
1649268824.160487,1649268824.181542,105.000000,0.000000,4245.769043,4216.410156,4248.717773,4234.230957,4245.000000,4235.641113,4243.717773,4245.641113,4230.512695,4229.358887,4223.205078,4230.256348,4207.563965,4217.948730,3396.000000,3.000000,55.000000,,,,0.000000,4.000000,4.000000,4.000000,4.000000,4.000000,4.000000,4.000000,4.000000,4.000000,4.000000,4.000000,4.000000,4.000000,4.000000,100.000000,,,,,,,,,,,,,,,,,,,,,,,,,,,,
1649268824.168309,1649268824.189268,106.000000,0.000000,4265.641113,4237.436035,4249.871582,4251.794922,4250.256348,4244.615234,4241.794922,4246.538574,4244.230957,4243.333496,4233.974121,4233.846191,4219.871582,4231.025879,3439.000000,3.000000,55.000000,,,,0.000000,4.000000,4.000000,4.000000,4.000000,4.000000,4.000000,4.000000,4.000000,4.000000,4.000000,4.000000,4.000000,4.000000,4.000000,100.000000,,,,,,,,,,,,,,,,,,,,,,,,,,,,
1649268824.176131,1649268824.197094,107.000000,0.000000,4267.692383,4233.589844,4248.205078,4250.769043,4250.000000,4248.077148,4241.410156,4246.922852,4255.000000,4251.282227,4238.077148,4232.051270,4219.230957,4238.846191,3594.000000,3.000000,55.000000,,,,0.000000,4.000000,4.000000,4.000000,4.000000,4.000000,4.000000,4.000000,4.000000,4.000000,4.000000,4.000000,4.000000,4.000000,4.000000,100.000000,,,,,,,,,,,,,,,,,,,,,,,,,,,,
1649268824.183953,1649268824.204819,108.000000,0.000000,4247.179688,4196.794922,4248.077148,4232.820313,4244.871582,4246.410156,4248.846191,4251.794922,4247.179688,4240.897461,4216.538574,4230.384766,4192.692383,4214.615234,3531.000000,3.000000,55.000000,,,,0.000000,4.000000,4.000000,4.000000,4.000000,4.000000,4.000000,4.000000,4.000000,4.000000,4.000000,4.000000,4.000000,4.000000,4.000000,100.000000,,,,,,,,,,,,,,,,,27.000000,0.000000,0.132301,-0.655151,0.185913,-0.720215,0.898451,-0.432135,0.064454,-32.898453,-110.807968,-2.841230
1649268824.191775,1649268824.212645,109.000000,0.000000,4252.692383,4205.128418,4248.717773,4239.615234,4246.794922,4246.410156,4249.230957,4250.512695,4240.512695,4238.077148,4218.974121,4232.179688,4209.487305,4216.410156,3396.000000,3.000000,55.000000,,,,0.000000,4.000000,4.000000,4.000000,4.000000,4.000000,4.000000,4.000000,4.000000,4.000000,4.000000,4.000000,4.000000,4.000000,4.000000,100.000000,,,,,,,,,,,,,,,,,,,,,,,,,,,,
1649268824.199597,1649268824.220371,110.000000,0.000000,4267.692383,4223.461426,4248.333496,4252.179688,4252.179688,4246.666504,4245.000000,4245.128418,4247.436035,4247.692383,4250.641113,4234.871582,4265.512695,4241.538574,3439.000000,3.000000,55.000000,,,,0.000000,4.000000,4.000000,4.000000,4.000000,4.000000,4.000000,4.000000,4.000000,4.000000,4.000000,4.000000,4.000000,4.000000,4.000000,100.000000,,,,,,,,,,,,,,,,,,,,,,,,,,,,
1649268824.207419,1649268824.228196,111.000000,0.000000,4253.846191,4191.025879,4244.102539,4239.871582,4250.897461,4246.538574,4245.769043,4245.000000,4250.384766,4247.948730,4254.230957,4231.538574,4287.436035,4228.333496,3594.000000,3.000000,55.000000,,,,0.000000,4.000000,4.000000,4.000000,4.000000,4.000000,4.000000,4.000000,4.000000,4.000000,4.000000,4.000000,4.000000,4.000000,4.000000,100.000000,,,,,,,,,,,,,,,,,,,,,,,,,,,,
1649268824.215241,1649268824.235922,112.000000,0.000000,4236.282227,4160.384766,4243.077148,4226.410156,4246.538574,4245.000000,4245.897461,4242.051270,4242.948730,4242.692383,4249.487305,4225.128418,4301.025879,4210.897461,3531.000000,3.000000,55.000000,,,,0.000000,4.000000,4.000000,4.000000,4.000000,4.000000,4.000000,4.000000,4.000000,4.000000,4.000000,4.000000,4.000000,4.000000,4.000000,100.000000,,,,,,,,,,,,,,,,,28.000000,0.000000,0.131691,-0.655090,0.185852,-0.720398,0.911635,-0.443854,0.069337,-33.347065,-109.611656,-2.542153
1649268824.223063,1649268824.243748,113.000000,0.000000,4232.307617,4149.230957,4243.205078,4219.487305,4237.692383,4243.974121,4243.974121,4238.589844,4241.282227,4244.743652,4263.333496,4219.871582,4326.922852,4213.205078,3396.000000,3.000000,55.000000,,,,0.000000,4.000000,4.000000,4.000000,4.000000,4.000000,4.000000,4.000000,4.000000,4.000000,4.000000,4.000000,4.000000,4.000000,4.000000,100.000000,,,,,,,,,,,,,,,,,,,,,,,,,,,,
1649268824.230885,1649268824.251473,114.000000,0.000000,4227.692383,4133.077148,4241.922852,4215.000000,4228.846191,4246.666504,4245.897461,4243.077148,4246.666504,4249.230957,4260.128418,4215.641113,4322.948730,4202.692383,3439.000000,3.000000,55.000000,,,,0.000000,4.000000,4.000000,4.000000,4.000000,4.000000,4.000000,4.000000,4.000000,4.000000,4.000000,4.000000,4.000000,4.000000,4.000000,100.000000,,,,,,,,,,,,,,,,,,,,,,,,,,,,
1649268824.238707,1649268824.259299,115.000000,0.000000,4228.077148,4141.666504,4242.820313,4223.333496,4233.717773,4246.666504,4247.948730,4241.410156,4245.641113,4246.794922,4246.794922,4217.051270,4314.487305,4194.102539,3594.000000,3.000000,55.000000,,,,0.000000,4.000000,4.000000,4.000000,4.000000,4.000000,4.000000,4.000000,4.000000,4.000000,4.000000,4.000000,4.000000,4.000000,4.000000,100.000000,,,,,,,,,,,,,,,,,,,,,,,,,,,,
1649268824.246529,1649268824.267025,116.000000,0.000000,4232.948730,4160.897461,4242.051270,4232.307617,4245.641113,4244.615234,4246.666504,4232.051270,4243.077148,4243.589844,4251.025879,4215.000000,4325.256348,4200.256348,3531.000000,3.000000,55.000000,,,,0.000000,4.000000,4.000000,4.000000,4.000000,4.000000,4.000000,4.000000,4.000000,4.000000,4.000000,4.000000,4.000000,4.000000,4.000000,100.000000,,,,,,,,,,,,,,,,,29.000000,0.000000,0.131630,-0.654968,0.185852,-0.720520,0.903822,-0.439948,0.067872,-33.646145,-112.153809,-2.841230
1649268824.254351,1649268824.274750,117.000000,0.000000,4227.692383,4151.922852,4241.666504,4229.358887,4249.871582,4246.666504,4248.461426,4235.512695,4246.282227,4245.000000,4257.051270,4213.077148,4320.000000,4201.025879,3396.000000,3.000000,55.000000,,,,0.000000,4.000000,4.000000,4.000000,4.000000,4.000000,4.000000,4.000000,4.000000,4.000000,4.000000,4.000000,4.000000,4.000000,4.000000,100.000000,,,,,,,,,,,,,,,,,,,,,,,,,,,,
1649268824.262173,1649268824.282576,118.000000,0.000000,4228.589844,4151.153809,4247.051270,4230.512695,4248.205078,4250.128418,4252.179688,4248.846191,4249.871582,4248.846191,4262.692383,4224.230957,4317.179688,4207.948730,3439.000000,3.000000,55.000000,,,,0.000000,4.000000,4.000000,4.000000,4.000000,4.000000,4.000000,4.000000,4.000000,4.000000,4.000000,4.000000,4.000000,4.000000,4.000000,100.000000,,,,,,,,,,,,,,,,,,,,,,,,,,,,
1649268824.269995,1649268824.290402,119.000000,0.000000,4236.666504,4162.948730,4249.102539,4232.692383,4243.846191,4248.717773,4251.025879,4249.358887,4250.641113,4250.000000,4266.538574,4231.025879,4326.666504,4221.282227,3594.000000,3.000000,55.000000,,,,0.000000,4.000000,4.000000,4.000000,4.000000,4.000000,4.000000,4.000000,4.000000,4.000000,4.000000,4.000000,4.000000,4.000000,4.000000,100.000000,,,,,,,,,,,,,,,,,,,,,,,,,,,,
1649268824.277817,1649268824.298127,120.000000,0.000000,4229.871582,4156.922852,4246.410156,4230.641113,4244.230957,4246.666504,4246.794922,4236.410156,4248.846191,4247.307617,4259.487305,4222.307617,4314.358887,4215.128418,3531.000000,3.000000,55.000000,,,,0.000000,4.000000,4.000000,4.000000,4.000000,4.000000,4.000000,4.000000,4.000000,4.000000,4.000000,4.000000,4.000000,4.000000,4.000000,100.000000,,,,,,,,,,,,,,,,,30.000000,0.000000,0.131296,-0.654968,0.185852,-0.720581,0.905776,-0.444831,0.074708,-33.047989,-110.957504,-1.644923
1649268824.285639,1649268824.305953,121.000000,0.000000,4218.333496,4147.307617,4244.487305,4229.871582,4243.205078,4247.436035,4246.666504,4231.025879,4241.410156,4241.922852,4250.512695,4215.512695,4296.410156,4202.307617,3396.000000,3.000000,55.000000,,,,0.000000,4.000000,4.000000,4.000000,4.000000,4.000000,4.000000,4.000000,4.000000,4.000000,4.000000,4.000000,4.000000,4.000000,4.000000,100.000000,,,,,,,,,,,,,,,,,,,,,,,,,,,,
1649268824.293461,1649268824.313679,122.000000,0.000000,4219.358887,4148.333496,4243.974121,4228.205078,4231.538574,4247.051270,4252.948730,4238.717773,4239.230957,4233.205078,4247.436035,4216.666504,4296.025879,4205.384766,3439.000000,3.000000,55.000000,,,,0.000000,4.000000,4.000000,4.000000,4.000000,4.000000,4.000000,4.000000,4.000000,4.000000,4.000000,4.000000,4.000000,4.000000,4.000000,100.000000,,,,,,,,,,,,,,,,,,,,,,,,,,,,
1649268824.301283,1649268824.321504,123.000000,0.000000,4219.358887,4157.307617,4244.487305,4227.563965,4232.820313,4246.666504,4259.230957,4245.641113,4244.102539,4230.641113,4250.384766,4216.666504,4297.436035,4213.974121,3594.000000,3.000000,55.000000,,,,0.000000,4.000000,4.000000,4.000000,4.000000,4.000000,4.000000,4.000000,4.000000,4.000000,4.000000,4.000000,4.000000,4.000000,4.000000,100.000000,,,,,,,,,,,,,,,,,,,,,,,,,,,,
1649268824.309105,1649268824.329230,124.000000,0.000000,4221.666504,4165.512695,4246.794922,4231.922852,4246.666504,4247.948730,4261.282227,4248.077148,4248.333496,4239.871582,4258.461426,4220.384766,4299.871582,4215.641113,3531.000000,3.000000,55.000000,,,,0.000000,4.000000,4.000000,4.000000,4.000000,4.000000,4.000000,4.000000,4.000000,4.000000,4.000000,4.000000,4.000000,4.000000,4.000000,100.000000,,,,,,,,,,,,,,,,,31.000000,0.000000,0.131686,-0.654907,0.185791,-0.720581,0.888685,-0.436042,0.073732,-32.449837,-110.807968,-1.345846
1649268824.316927,1649268824.336956,125.000000,0.000000,4237.948730,4169.871582,4248.717773,4239.230957,4250.256348,4250.256348,4257.692383,4251.025879,4253.974121,4250.384766,4264.230957,4227.948730,4309.230957,4221.153809,3396.000000,3.000000,55.000000,,,,0.000000,4.000000,4.000000,4.000000,4.000000,4.000000,4.000000,4.000000,4.000000,4.000000,4.000000,4.000000,4.000000,4.000000,4.000000,100.000000,,,,,,,,,,,,,,,,,,,,,,,,,,,,
1649268824.324748,1649268824.344781,126.000000,0.000000,4245.256348,4177.436035,4250.000000,4246.282227,4251.538574,4251.410156,4249.871582,4250.384766,4259.615234,4252.820313,4263.974121,4228.589844,4312.948730,4231.282227,3439.000000,3.000000,55.000000,,,,0.000000,4.000000,4.000000,4.000000,4.000000,4.000000,4.000000,4.000000,4.000000,4.000000,4.000000,4.000000,4.000000,4.000000,4.000000,100.000000,,,,,,,,,,,,,,,,,,,,,,,,,,,,
1649268824.332570,1649268824.352607,127.000000,0.000000,4236.922852,4185.512695,4248.717773,4250.769043,4260.384766,4251.410156,4251.666504,4246.666504,4262.692383,4250.641113,4262.948730,4224.358887,4310.512695,4233.846191,53.000000,3.000000,55.000000,,,,0.000000,4.000000,4.000000,4.000000,4.000000,4.000000,4.000000,4.000000,4.000000,4.000000,4.000000,4.000000,4.000000,4.000000,4.000000,100.000000,,,,,,,,,,,,,,,,,,,,,,,,,,,,
1649268824.340392,1649268824.360333,0.000000,0.000000,4234.358887,4180.000000,4242.948730,4244.871582,4257.563965,4251.666504,4259.871582,4247.307617,4259.487305,4249.743652,4264.615234,4220.641113,4309.743652,4227.948730,2747.000000,3.000000,55.000000,,,,0.000000,4.000000,4.000000,4.000000,4.000000,4.000000,4.000000,4.000000,4.000000,4.000000,4.000000,4.000000,4.000000,4.000000,4.000000,100.000000,,,,,,,,,,,,,,,,,0.000000,0.000000,0.131741,-0.654846,0.185730,-0.720642,0.923354,-0.442390,0.075196,-31.851683,-109.761200,-3.738460
1649268824.348214,1649268824.368058,1.000000,0.000000,4234.102539,4176.794922,4242.051270,4238.589844,4243.974121,4249.743652,4252.692383,4245.769043,4251.666504,4248.846191,4260.256348,4217.692383,4305.512695,4222.948730,3536.000000,3.000000,55.000000,,,,0.000000,4.000000,4.000000,4.000000,4.000000,4.000000,4.000000,4.000000,4.000000,4.000000,4.000000,4.000000,4.000000,4.000000,4.000000,100.000000,,,,,,,,,,,,,,,,,,,,,,,,,,,,
1649268824.356036,1649268824.375884,2.000000,0.000000,4228.846191,4182.820313,4247.179688,4245.897461,4248.589844,4247.179688,4245.256348,4241.410156,4250.384766,4248.461426,4254.615234,4216.922852,4304.102539,4222.948730,3581.000000,3.000000,55.000000,,,,0.000000,4.000000,4.000000,4.000000,4.000000,4.000000,4.000000,4.000000,4.000000,4.000000,4.000000,4.000000,4.000000,4.000000,4.000000,100.000000,,,,,,,,,,,,,,,,,,,,,,,,,,,,
1649268824.363858,1649268824.383709,3.000000,0.000000,4228.461426,4175.769043,4246.666504,4249.102539,4256.922852,4249.230957,4256.922852,4245.256348,4258.717773,4249.615234,4259.230957,4221.282227,4308.717773,4222.563965,3298.000000,3.000000,55.000000,,,,0.000000,4.000000,4.000000,4.000000,4.000000,4.000000,4.000000,4.000000,4.000000,4.000000,4.000000,4.000000,4.000000,4.000000,4.000000,100.000000,,,,,,,,,,,,,,,,,,,,,,,,,,,,
1649268824.371680,1649268824.391335,4.000000,0.000000,4226.922852,4168.717773,4240.769043,4241.410156,4252.179688,4252.051270,4260.769043,4250.128418,4259.615234,4247.948730,4258.974121,4221.025879,4303.846191,4218.205078,3620.000000,3.000000,55.000000,,,,0.000000,4.000000,4.000000,4.000000,4.000000,4.000000,4.000000,4.000000,4.000000,4.000000,4.000000,4.000000,4.000000,4.000000,4.000000,100.000000,,,,,,,,,,,,,,,,,1.000000,0.000000,0.131741,-0.654846,0.185730,-0.720642,0.899916,-0.442390,0.072267,-33.047989,-110.508888,-1.943999
1649268824.379502,1649268824.399161,5.000000,0.000000,4226.794922,4184.230957,4241.922852,4242.563965,4256.282227,4249.358887,4250.384766,4246.666504,4255.128418,4246.922852,4251.153809,4215.769043,4298.974121,4222.051270,3420.000000,3.000000,55.000000,,,,0.000000,4.000000,4.000000,4.000000,4.000000,4.000000,4.000000,4.000000,4.000000,4.000000,4.000000,4.000000,4.000000,4.000000,4.000000,100.000000,,,,,,,,,,,,,,,,,,,,,,,,,,,,
1649268824.387324,1649268824.406887,6.000000,0.000000,4231.153809,4192.436035,4247.692383,4251.282227,4264.358887,4248.205078,4248.333496,4245.769043,4261.538574,4248.717773,4254.102539,4220.128418,4304.230957,4232.307617,3530.000000,3.000000,55.000000,,,,0.000000,4.000000,4.000000,4.000000,4.000000,4.000000,4.000000,4.000000,4.000000,4.000000,4.000000,4.000000,4.000000,4.000000,4.000000,100.000000,,,,,,,,,,,,,,,,,,,,,,,,,,,,
1649268824.395146,1649268824.414712,7.000000,0.000000,4228.717773,4182.563965,4246.666504,4248.717773,4252.692383,4250.897461,4252.563965,4248.077148,4264.358887,4248.846191,4260.000000,4228.205078,4305.897461,4230.000000,3630.000000,3.000000,55.000000,,,,0.000000,4.000000,4.000000,4.000000,4.000000,4.000000,4.000000,4.000000,4.000000,4.000000,4.000000,4.000000,4.000000,4.000000,4.000000,100.000000,,,,,,,,,,,,,,,,,,,,,,,,,,,,
1649268824.402968,1649268824.422538,8.000000,0.000000,4228.077148,4189.102539,4244.871582,4245.512695,4246.410156,4251.025879,4253.589844,4245.512695,4260.769043,4252.307617,4261.153809,4229.358887,4305.384766,4230.256348,3580.000000,3.000000,55.000000,,,,0.000000,4.000000,4.000000,4.000000,4.000000,4.000000,4.000000,4.000000,4.000000,4.000000,4.000000,4.000000,4.000000,4.000000,4.000000,100.000000,,,,,,,,,,,,,,,,,2.000000,0.000000,0.131827,-0.654846,0.185669,-0.720642,0.907240,-0.460456,0.066896,-33.347065,-110.060272,-2.841230
1649268824.410790,1649268824.430264,9.000000,0.000000,4234.743652,4200.128418,4248.333496,4249.102539,4262.436035,4250.256348,4252.563965,4246.794922,4263.589844,4263.589844,4267.820313,4231.025879,4312.436035,4241.025879,3704.000000,3.000000,55.000000,,,,0.000000,4.000000,4.000000,4.000000,4.000000,4.000000,4.000000,4.000000,4.000000,4.000000,4.000000,4.000000,4.000000,4.000000,4.000000,100.000000,,,,,,,,,,,,,,,,,,,,,,,,,,,,
1649268824.418612,1649268824.438089,10.000000,0.000000,4236.153809,4190.769043,4248.717773,4247.436035,4265.384766,4251.153809,4250.000000,4253.077148,4265.641113,4262.820313,4270.512695,4233.077148,4312.692383,4239.743652,3432.000000,3.000000,55.000000,,,,0.000000,4.000000,4.000000,4.000000,4.000000,4.000000,4.000000,4.000000,4.000000,4.000000,4.000000,4.000000,4.000000,4.000000,4.000000,100.000000,,,,,,,,,,,,,,,,,,,,,,,,,,,,
1649268824.426434,1649268824.445915,11.000000,0.000000,4229.102539,4183.077148,4242.563965,4244.487305,4251.922852,4250.000000,4247.948730,4252.948730,4263.205078,4251.666504,4260.256348,4223.077148,4298.461426,4229.487305,3593.000000,3.000000,55.000000,,,,0.000000,4.000000,4.000000,4.000000,4.000000,4.000000,4.000000,4.000000,4.000000,4.000000,4.000000,4.000000,4.000000,4.000000,4.000000,100.000000,,,,,,,,,,,,,,,,,,,,,,,,,,,,
1649268824.434256,1649268824.453641,12.000000,0.000000,4226.153809,4185.128418,4239.358887,4248.077148,4245.128418,4247.179688,4247.307617,4245.897461,4260.769043,4252.563965,4260.256348,4215.128418,4291.666504,4225.256348,3527.000000,3.000000,55.000000,,,,0.000000,4.000000,4.000000,4.000000,4.000000,4.000000,4.000000,4.000000,4.000000,4.000000,4.000000,4.000000,4.000000,4.000000,4.000000,100.000000,,,,,,,,,,,,,,,,,3.000000,0.000000,0.131842,-0.654724,0.185852,-0.720703,0.906752,-0.432624,0.071778,-32.748913,-111.705193,-3.439384
1649268824.442078,1649268824.461366,13.000000,0.000000,4232.563965,4186.666504,4245.128418,4250.384766,4246.538574,4249.487305,4246.410156,4247.692383,4266.410156,4265.897461,4274.743652,4223.974121,4302.692383,4230.128418,3395.000000,3.000000,55.000000,,,,0.000000,4.000000,4.000000,4.000000,4.000000,4.000000,4.000000,4.000000,4.000000,4.000000,4.000000,4.000000,4.000000,4.000000,4.000000,100.000000,,,,,,,,,,,,,,,,,,,,,,,,,,,,
1649268824.449900,1649268824.469092,14.000000,0.000000,4238.717773,4192.307617,4251.282227,4249.358887,4254.615234,4257.820313,4251.922852,4260.000000,4277.692383,4275.256348,4284.743652,4233.846191,4313.333496,4241.666504,3432.000000,3.000000,55.000000,,,,0.000000,4.000000,4.000000,4.000000,4.000000,4.000000,4.000000,4.000000,4.000000,4.000000,4.000000,4.000000,4.000000,4.000000,4.000000,100.000000,,,,,,,,,,,,,,,,,,,,,,,,,,,,
1649268824.457722,1649268824.476918,15.000000,0.000000,4238.461426,4202.307617,4250.769043,4256.538574,4264.230957,4265.128418,4257.692383,4260.000000,4277.820313,4274.615234,4284.615234,4235.512695,4312.820313,4243.077148,3593.000000,3.000000,55.000000,,,,0.000000,4.000000,4.000000,4.000000,4.000000,4.000000,4.000000,4.000000,4.000000,4.000000,4.000000,4.000000,4.000000,4.000000,4.000000,100.000000,,,,,,,,,,,,,,,,,,,,,,,,,,,,
1649268824.465544,1649268824.484743,16.000000,0.000000,4233.077148,4203.205078,4247.692383,4263.589844,4268.205078,4262.820313,4254.102539,4248.589844,4267.051270,4272.820313,4280.512695,4233.717773,4310.384766,4234.743652,0.000000,3.000000,55.000000,,,,0.000000,4.000000,4.000000,4.000000,4.000000,4.000000,4.000000,4.000000,4.000000,4.000000,4.000000,4.000000,4.000000,4.000000,4.000000,100.000000,,,,,,,,,,,,,,,,,4.000000,0.000000,0.131887,-0.654663,0.186035,-0.720703,0.886732,-0.448249,0.073243,-33.347065,-110.807968,-1.794461
1649268824.473366,1649268824.492469,17.000000,0.000000,4232.948730,4201.538574,4247.307617,4256.025879,4260.384766,4255.256348,4248.333496,4245.384766,4263.846191,4273.461426,4278.717773,4231.794922,4313.333496,4236.538574,0.000000,3.000000,55.000000,,,,0.000000,4.000000,4.000000,4.000000,4.000000,4.000000,4.000000,4.000000,4.000000,4.000000,4.000000,4.000000,4.000000,4.000000,4.000000,100.000000,,,,,,,,,,,,,,,,,,,,,,,,,,,,
1649268824.481188,1649268824.500195,18.000000,0.000000,4242.051270,4203.333496,4248.333496,4248.077148,4253.333496,4257.051270,4248.205078,4247.820313,4267.820313,4276.666504,4280.000000,4228.205078,4312.948730,4238.974121,0.000000,3.000000,55.000000,,,,0.000000,4.000000,4.000000,4.000000,4.000000,4.000000,4.000000,4.000000,4.000000,4.000000,4.000000,4.000000,4.000000,4.000000,4.000000,100.000000,,,,,,,,,,,,,,,,,,,,,,,,,,,,
1649268824.489010,1649268824.508020,19.000000,0.000000,4244.487305,4202.179688,4246.025879,4246.025879,4259.487305,4258.205078,4247.179688,4248.333496,4268.589844,4280.128418,4276.538574,4228.717773,4308.846191,4230.897461,0.000000,3.000000,55.000000,,,,0.000000,4.000000,4.000000,4.000000,4.000000,4.000000,4.000000,4.000000,4.000000,4.000000,4.000000,4.000000,4.000000,4.000000,4.000000,100.000000,,,,,,,,,,,,,,,,,,,,,,,,,,,,
1649268824.496832,1649268824.515846,20.000000,0.000000,4236.666504,4199.358887,4240.256348,4238.974121,4259.358887,4249.615234,4243.589844,4250.897461,4264.743652,4274.487305,4267.179688,4230.256348,4307.307617,4229.743652,0.000000,3.000000,55.000000,,,,0.000000,4.000000,4.000000,4.000000,4.000000,4.000000,4.000000,4.000000,4.000000,4.000000,4.000000,4.000000,4.000000,4.000000,4.000000,100.000000,,,,,,,,,,,,,,,,,5.000000,0.000000,0.132012,-0.654419,0.186096,-0.720886,0.903822,-0.437995,0.073732,-33.347065,-111.406120,-1.345846
1649268824.504654,1649268824.523572,21.000000,0.000000,4237.179688,4201.666504,4240.000000,4232.436035,4248.589844,4248.717773,4243.717773,4249.487305,4264.487305,4266.410156,4262.948730,4222.692383,4308.717773,4232.436035,0.000000,3.000000,55.000000,,,,0.000000,4.000000,4.000000,4.000000,4.000000,4.000000,4.000000,4.000000,4.000000,4.000000,4.000000,4.000000,4.000000,4.000000,4.000000,100.000000,0.976563,75.000000,4.000000,4.000000,4.000000,4.000000,4.000000,1.000000,4.000000,4.000000,4.000000,4.000000,4.000000,4.000000,4.000000,4.000000,,,,,,,,,,,,
1649268824.512476,1649268824.531297,22.000000,0.000000,4245.769043,4205.256348,4246.153809,4233.846191,4250.769043,4257.692383,4247.436035,4247.436035,4270.897461,4272.179688,4266.025879,4215.769043,4309.871582,4227.820313,0.000000,3.000000,55.000000,,,,0.000000,4.000000,4.000000,4.000000,4.000000,4.000000,4.000000,4.000000,4.000000,4.000000,4.000000,4.000000,4.000000,4.000000,4.000000,100.000000,,,,,,,,,,,,,,,,,,,,,,,,,,,,
1649268824.520298,1649268824.539123,23.000000,0.000000,4246.410156,4200.897461,4247.820313,4234.743652,4260.000000,4258.974121,4249.358887,4255.128418,4272.948730,4281.922852,4270.897461,4221.025879,4309.615234,4225.897461,0.000000,3.000000,55.000000,,,,0.000000,4.000000,4.000000,4.000000,4.000000,4.000000,4.000000,4.000000,4.000000,4.000000,4.000000,4.000000,4.000000,4.000000,4.000000,100.000000,,,,,,,,,,,,,,,,,,,,,,,,,,,,
1649268824.528119,1649268824.546849,24.000000,0.000000,4243.846191,4197.692383,4246.025879,4240.641113,4260.256348,4257.179688,4248.333496,4254.871582,4263.974121,4274.871582,4276.282227,4230.641113,4310.897461,4232.179688,0.000000,3.000000,55.000000,,,,0.000000,4.000000,4.000000,4.000000,4.000000,4.000000,4.000000,4.000000,4.000000,4.000000,4.000000,4.000000,4.000000,4.000000,4.000000,100.000000,,,,,,,,,,,,,,,,,6.000000,0.000000,0.131908,-0.654236,0.186340,-0.721008,0.894545,-0.430671,0.066407,-34.094757,-109.611656,-2.093538
1649268824.535941,1649268824.554574,25.000000,0.000000,4247.692383,4208.461426,4249.102539,4249.871582,4262.179688,4260.641113,4249.358887,4249.615234,4261.025879,4271.666504,4277.307617,4232.563965,4311.538574,4241.410156,0.000000,3.000000,55.000000,,,,0.000000,4.000000,4.000000,4.000000,4.000000,4.000000,4.000000,4.000000,4.000000,4.000000,4.000000,4.000000,4.000000,4.000000,4.000000,100.000000,,,,,,,,,,,,,,,,,,,,,,,,,,,,
1649268824.543764,1649268824.562400,26.000000,0.000000,4251.410156,4218.333496,4252.563965,4250.256348,4264.871582,4259.358887,4251.153809,4254.871582,4267.051270,4279.743652,4278.461426,4232.692383,4311.538574,4244.487305,0.000000,3.000000,55.000000,,,,0.000000,4.000000,4.000000,4.000000,4.000000,4.000000,4.000000,4.000000,4.000000,4.000000,4.000000,4.000000,4.000000,4.000000,4.000000,100.000000,,,,,,,,,,,,,,,,,,,,,,,,,,,,
1649268824.551585,1649268824.570226,27.000000,0.000000,4248.589844,4212.820313,4249.358887,4248.077148,4259.487305,4259.358887,4250.384766,4256.282227,4265.641113,4274.358887,4278.974121,4233.589844,4312.820313,4235.897461,0.000000,3.000000,55.000000,,,,0.000000,4.000000,4.000000,4.000000,4.000000,4.000000,4.000000,4.000000,4.000000,4.000000,4.000000,4.000000,4.000000,4.000000,4.000000,100.000000,,,,,,,,,,,,,,,,,,,,,,,,,,,,
1649268824.559407,1649268824.577951,28.000000,0.000000,4239.615234,4206.538574,4245.641113,4243.205078,4252.051270,4260.897461,4248.205078,4247.820313,4260.384766,4260.256348,4268.077148,4224.487305,4305.769043,4225.384766,0.000000,3.000000,55.000000,,,,0.000000,4.000000,4.000000,4.000000,4.000000,4.000000,4.000000,4.000000,4.000000,4.000000,4.000000,4.000000,4.000000,4.000000,4.000000,100.000000,,,,,,,,,,,,,,,,,7.000000,0.000000,0.131976,-0.654053,0.186462,-0.721130,0.906264,-0.447761,0.075196,-34.094757,-111.406120,-2.093538
1649268824.567229,1649268824.585777,29.000000,0.000000,4237.307617,4211.282227,4247.436035,4236.794922,4249.743652,4252.563965,4247.307617,4245.512695,4259.487305,4259.358887,4259.871582,4217.051270,4298.077148,4229.743652,0.000000,3.000000,55.000000,,,,0.000000,4.000000,4.000000,4.000000,4.000000,4.000000,4.000000,4.000000,4.000000,4.000000,4.000000,4.000000,4.000000,4.000000,4.000000,100.000000,,,,,,,,,,,,,,,,,,,,,,,,,,,,
1649268824.575051,1649268824.593503,30.000000,0.000000,4243.205078,4213.589844,4249.871582,4240.769043,4253.589844,4247.307617,4247.307617,4249.487305,4260.000000,4262.563965,4267.820313,4222.436035,4300.384766,4240.000000,0.000000,3.000000,55.000000,,,,0.000000,4.000000,4.000000,4.000000,4.000000,4.000000,4.000000,4.000000,4.000000,4.000000,4.000000,4.000000,4.000000,4.000000,4.000000,100.000000,,,,,,,,,,,,,,,,,,,,,,,,,,,,
1649268824.582873,1649268824.601328,31.000000,0.000000,4244.230957,4211.153809,4248.461426,4249.487305,4261.025879,4252.307617,4246.922852,4248.333496,4260.256348,4259.615234,4272.307617,4228.589844,4300.897461,4239.230957,0.000000,3.000000,55.000000,,,,0.000000,4.000000,4.000000,4.000000,4.000000,4.000000,4.000000,4.000000,4.000000,4.000000,4.000000,4.000000,4.000000,4.000000,4.000000,100.000000,,,,,,,,,,,,,,,,,,,,,,,,,,,,
1649268824.590695,1649268824.609054,32.000000,0.000000,4245.384766,4213.077148,4245.512695,4248.589844,4262.563965,4252.692383,4246.666504,4245.641113,4263.333496,4261.282227,4265.256348,4227.692383,4294.871582,4232.563965,0.000000,3.000000,55.000000,,,,0.000000,4.000000,4.000000,4.000000,4.000000,4.000000,4.000000,4.000000,4.000000,4.000000,4.000000,4.000000,4.000000,4.000000,4.000000,100.000000,,,,,,,,,,,,,,,,,8.000000,0.000000,0.132001,-0.653931,0.186401,-0.721252,0.907729,-0.456062,0.082033,-34.244297,-108.415352,-2.990768
1649268824.598517,1649268824.616880,33.000000,0.000000,4246.153809,4214.487305,4245.384766,4243.205078,4249.871582,4247.436035,4245.641113,4245.641113,4261.922852,4263.846191,4262.179688,4223.461426,4292.948730,4233.589844,0.000000,3.000000,55.000000,,,,0.000000,4.000000,4.000000,4.000000,4.000000,4.000000,4.000000,4.000000,4.000000,4.000000,4.000000,4.000000,4.000000,4.000000,4.000000,100.000000,,,,,,,,,,,,,,,,,,,,,,,,,,,,
1649268824.606339,1649268824.624605,34.000000,0.000000,4242.051270,4213.333496,4246.538574,4243.589844,4241.922852,4247.307617,4244.487305,4245.512695,4252.436035,4260.128418,4263.461426,4223.846191,4293.205078,4241.410156,0.000000,3.000000,55.000000,,,,0.000000,4.000000,4.000000,4.000000,4.000000,4.000000,4.000000,4.000000,4.000000,4.000000,4.000000,4.000000,4.000000,4.000000,4.000000,100.000000,,,,,,,,,,,,,,,,,,,,,,,,,,,,
1649268824.614161,1649268824.632431,35.000000,0.000000,4243.846191,4215.769043,4250.512695,4249.102539,4257.563965,4248.717773,4244.615234,4246.794922,4252.051270,4259.102539,4264.871582,4229.615234,4295.769043,4246.666504,0.000000,3.000000,55.000000,,,,0.000000,4.000000,4.000000,4.000000,4.000000,4.000000,4.000000,4.000000,4.000000,4.000000,4.000000,4.000000,4.000000,4.000000,4.000000,100.000000,,,,,,,,,,,,,,,,,,,,,,,,,,,,
1649268824.621983,1649268824.640157,36.000000,0.000000,4251.410156,4218.717773,4255.769043,4252.820313,4265.897461,4248.589844,4247.436035,4249.615234,4263.717773,4263.589844,4273.077148,4234.615234,4304.615234,4249.230957,0.000000,3.000000,55.000000,,,,0.000000,4.000000,4.000000,4.000000,4.000000,4.000000,4.000000,4.000000,4.000000,4.000000,4.000000,4.000000,4.000000,4.000000,4.000000,100.000000,,,,,,,,,,,,,,,,,9.000000,0.000000,0.132099,-0.653809,0.186523,-0.721313,0.913588,-0.442390,0.064454,-31.851683,-110.209808,-3.439384
1649268824.629805,1649268824.647982,37.000000,0.000000,4251.153809,4217.436035,4251.922852,4245.769043,4252.051270,4249.615234,4247.692383,4248.461426,4266.666504,4265.000000,4277.563965,4231.282227,4303.846191,4247.179688,0.000000,3.000000,55.000000,,,,0.000000,4.000000,4.000000,4.000000,4.000000,4.000000,4.000000,4.000000,4.000000,4.000000,4.000000,4.000000,4.000000,4.000000,4.000000,100.000000,,,,,,,,,,,,,,,,,,,,,,,,,,,,
1649268824.637627,1649268824.655708,38.000000,0.000000,4246.794922,4217.179688,4248.846191,4244.102539,4253.846191,4250.512695,4247.307617,4246.794922,4259.615234,4263.077148,4270.769043,4228.205078,4294.358887,4245.128418,0.000000,3.000000,55.000000,,,,0.000000,4.000000,4.000000,4.000000,4.000000,4.000000,4.000000,4.000000,4.000000,4.000000,4.000000,4.000000,4.000000,4.000000,4.000000,100.000000,,,,,,,,,,,,,,,,,,,,,,,,,,,,
1649268824.645449,1649268824.663533,39.000000,0.000000,4247.948730,4218.077148,4258.333496,4253.974121,4270.256348,4250.128418,4248.846191,4250.512695,4262.563965,4265.641113,4264.615234,4232.436035,4294.487305,4249.102539,0.000000,3.000000,55.000000,,,,0.000000,4.000000,4.000000,4.000000,4.000000,4.000000,4.000000,4.000000,4.000000,4.000000,4.000000,4.000000,4.000000,4.000000,4.000000,100.000000,,,,,,,,,,,,,,,,,,,,,,,,,,,,
1649268824.653271,1649268824.671259,40.000000,0.000000,4253.717773,4217.692383,4263.974121,4253.205078,4267.051270,4249.871582,4244.871582,4248.461426,4266.794922,4267.820313,4265.256348,4232.948730,4297.051270,4250.384766,0.000000,3.000000,55.000000,,,,0.000000,4.000000,4.000000,4.000000,4.000000,4.000000,4.000000,4.000000,4.000000,4.000000,4.000000,4.000000,4.000000,4.000000,4.000000,100.000000,,,,,,,,,,,,,,,,,10.000000,0.000000,0.131895,-0.653748,0.186646,-0.721375,0.894057,-0.444343,0.074220,-33.347065,-110.807968,-2.841230
1649268824.661093,1649268824.679085,41.000000,0.000000,4260.512695,4216.666504,4257.563965,4248.461426,4257.692383,4249.743652,4242.179688,4242.692383,4257.820313,4262.051270,4265.641113,4231.794922,4294.358887,4248.205078,0.000000,3.000000,55.000000,,,,0.000000,4.000000,4.000000,4.000000,4.000000,4.000000,4.000000,4.000000,4.000000,4.000000,4.000000,4.000000,4.000000,4.000000,4.000000,100.000000,,,,,,,,,,,,,,,,,,,,,,,,,,,,
1649268824.668915,1649268824.686811,42.000000,0.000000,4263.205078,4218.461426,4256.282227,4256.410156,4264.102539,4249.871582,4246.666504,4246.538574,4253.589844,4261.282227,4264.358887,4233.333496,4294.871582,4249.487305,0.000000,3.000000,55.000000,,,,0.000000,4.000000,4.000000,4.000000,4.000000,4.000000,4.000000,4.000000,4.000000,4.000000,4.000000,4.000000,4.000000,4.000000,4.000000,100.000000,,,,,,,,,,,,,,,,,,,,,,,,,,,,
1649268824.676737,1649268824.694636,43.000000,0.000000,4259.230957,4219.102539,4262.051270,4262.692383,4267.307617,4250.128418,4247.436035,4248.589844,4259.358887,4271.410156,4263.846191,4234.230957,4294.743652,4249.102539,0.000000,3.000000,55.000000,,,,0.000000,4.000000,4.000000,4.000000,4.000000,4.000000,4.000000,4.000000,4.000000,4.000000,4.000000,4.000000,4.000000,4.000000,4.000000,100.000000,,,,,,,,,,,,,,,,,,,,,,,,,,,,
1649268824.684559,1649268824.702362,44.000000,0.000000,4256.538574,4216.794922,4261.794922,4257.563965,4255.000000,4250.384766,4244.487305,4246.538574,4263.205078,4277.307617,4266.538574,4235.512695,4294.230957,4245.384766,0.000000,3.000000,55.000000,,,,0.000000,4.000000,4.000000,4.000000,4.000000,4.000000,4.000000,4.000000,4.000000,4.000000,4.000000,4.000000,4.000000,4.000000,4.000000,100.000000,,,,,,,,,,,,,,,,,11.000000,0.000000,0.131970,-0.653748,0.186829,-0.721313,0.909682,-0.441413,0.079103,-32.449837,-109.312584,-1.794461
1649268824.692381,1649268824.710187,45.000000,0.000000,4264.615234,4222.307617,4263.077148,4258.589844,4247.563965,4250.384766,4248.589844,4255.000000,4270.769043,4278.974121,4281.153809,4242.563965,4303.846191,4252.436035,0.000000,3.000000,55.000000,,,,0.000000,4.000000,4.000000,4.000000,4.000000,4.000000,4.000000,4.000000,4.000000,4.000000,4.000000,4.000000,4.000000,4.000000,4.000000,100.000000,,,,,,,,,,,,,,,,,,,,,,,,,,,,
1649268824.700203,1649268824.717913,46.000000,0.000000,4275.256348,4233.589844,4266.025879,4263.589844,4255.256348,4250.897461,4251.025879,4266.922852,4280.384766,4282.820313,4290.384766,4250.769043,4314.230957,4264.743652,0.000000,3.000000,55.000000,,,,0.000000,4.000000,4.000000,4.000000,4.000000,4.000000,4.000000,4.000000,4.000000,4.000000,4.000000,4.000000,4.000000,4.000000,4.000000,100.000000,,,,,,,,,,,,,,,,,,,,,,,,,,,,
1649268824.708025,1649268824.725739,47.000000,0.000000,4275.384766,4236.282227,4264.871582,4263.461426,4266.538574,4251.538574,4248.461426,4264.102539,4273.846191,4282.948730,4285.384766,4249.358887,4313.461426,4266.153809,0.000000,3.000000,55.000000,,,,0.000000,4.000000,4.000000,4.000000,4.000000,4.000000,4.000000,4.000000,4.000000,4.000000,4.000000,4.000000,4.000000,4.000000,4.000000,100.000000,,,,,,,,,,,,,,,,,,,,,,,,,,,,
1649268824.715847,1649268824.733465,48.000000,0.000000,4267.692383,4233.589844,4265.641113,4260.769043,4264.487305,4250.256348,4248.846191,4251.794922,4262.948730,4278.461426,4277.948730,4239.743652,4305.512695,4256.410156,0.000000,3.000000,55.000000,,,,0.000000,4.000000,4.000000,4.000000,4.000000,4.000000,4.000000,4.000000,4.000000,4.000000,4.000000,4.000000,4.000000,4.000000,4.000000,100.000000,,,,,,,,,,,,,,,,,12.000000,0.000000,0.132154,-0.653625,0.186890,-0.721375,0.910170,-0.448249,0.078614,-34.244297,-112.303352,-2.990768
1649268824.723668,1649268824.741190,49.000000,0.000000,4257.307617,4230.512695,4260.512695,4252.563965,4249.230957,4248.333496,4247.179688,4245.128418,4263.589844,4272.563965,4267.563965,4230.641113,4296.153809,4243.974121,0.000000,3.000000,55.000000,,,,0.000000,4.000000,4.000000,4.000000,4.000000,4.000000,4.000000,4.000000,4.000000,4.000000,4.000000,4.000000,4.000000,4.000000,4.000000,100.000000,,,,,,,,,,,,,,,,,,,,,,,,,,,,
1649268824.731490,1649268824.749016,50.000000,0.000000,4252.436035,4228.974121,4251.153809,4246.922852,4242.692383,4249.230957,4242.948730,4245.384766,4264.871582,4269.615234,4261.153809,4230.000000,4292.179688,4241.666504,0.000000,3.000000,55.000000,,,,0.000000,4.000000,4.000000,4.000000,4.000000,4.000000,4.000000,4.000000,4.000000,4.000000,4.000000,4.000000,4.000000,4.000000,4.000000,100.000000,,,,,,,,,,,,,,,,,,,,,,,,,,,,
1649268824.739313,1649268824.756841,51.000000,0.000000,4259.615234,4232.692383,4254.615234,4254.871582,4257.179688,4250.512695,4243.205078,4245.128418,4263.205078,4270.769043,4269.230957,4234.102539,4299.358887,4249.743652,0.000000,3.000000,55.000000,,,,0.000000,4.000000,4.000000,4.000000,4.000000,4.000000,4.000000,4.000000,4.000000,4.000000,4.000000,4.000000,4.000000,4.000000,4.000000,100.000000,,,,,,,,,,,,,,,,,,,,,,,,,,,,
1649268824.747134,1649268824.764567,52.000000,0.000000,4265.000000,4236.282227,4262.179688,4263.077148,4271.025879,4249.358887,4245.897461,4241.282227,4261.922852,4274.615234,4276.794922,4233.333496,4302.820313,4251.153809,0.000000,3.000000,55.000000,,,,0.000000,4.000000,4.000000,4.000000,4.000000,4.000000,4.000000,4.000000,4.000000,4.000000,4.000000,4.000000,4.000000,4.000000,4.000000,100.000000,,,,,,,,,,,,,,,,,13.000000,0.000000,0.132049,-0.653564,0.186707,-0.721497,0.911147,-0.447761,0.078126,-32.748913,-109.163040,-2.691691
1649268824.754956,1649268824.772293,53.000000,0.000000,4261.666504,4233.589844,4261.025879,4264.615234,4266.025879,4250.256348,4247.307617,4242.948730,4264.102539,4275.897461,4276.794922,4232.563965,4299.487305,4246.410156,0.000000,3.000000,55.000000,,,,0.000000,4.000000,4.000000,4.000000,4.000000,4.000000,4.000000,4.000000,4.000000,4.000000,4.000000,4.000000,4.000000,4.000000,4.000000,100.000000,,,,,,,,,,,,,,,,,,,,,,,,,,,,
1649268824.762778,1649268824.780119,54.000000,0.000000,4262.948730,4231.666504,4262.179688,4263.974121,4260.256348,4251.538574,4246.922852,4247.563965,4262.179688,4270.641113,4277.436035,4235.769043,4296.794922,4248.461426,0.000000,3.000000,55.000000,,,,0.000000,4.000000,4.000000,4.000000,4.000000,4.000000,4.000000,4.000000,4.000000,4.000000,4.000000,4.000000,4.000000,4.000000,4.000000,100.000000,,,,,,,,,,,,,,,,,,,,,,,,,,,,
1649268824.770600,1649268824.787944,55.000000,0.000000,4264.487305,4230.897461,4261.282227,4254.230957,4262.179688,4250.512695,4246.666504,4242.692383,4250.769043,4261.153809,4266.922852,4232.436035,4285.384766,4247.692383,0.000000,3.000000,55.000000,,,,0.000000,4.000000,4.000000,4.000000,4.000000,4.000000,4.000000,4.000000,4.000000,4.000000,4.000000,4.000000,4.000000,4.000000,4.000000,100.000000,,,,,,,,,,,,,,,,,,,,,,,,,,,,
1649268824.778422,1649268824.795670,56.000000,0.000000,4261.153809,4229.871582,4258.717773,4250.256348,4257.307617,4255.897461,4249.487305,4245.128418,4252.948730,4261.794922,4258.717773,4228.717773,4278.974121,4244.743652,0.000000,3.000000,55.000000,,,,0.000000,4.000000,4.000000,4.000000,4.000000,4.000000,4.000000,4.000000,4.000000,4.000000,4.000000,4.000000,4.000000,4.000000,4.000000,100.000000,,,,,,,,,,,,,,,,,14.000000,0.000000,0.131994,-0.653625,0.186768,-0.721436,0.905287,-0.431159,0.083009,-33.945221,-111.256584,-1.943999
1649268824.786244,1649268824.803396,57.000000,0.000000,4264.615234,4232.692383,4262.179688,4261.410156,4254.615234,4261.025879,4251.282227,4259.487305,4268.077148,4270.384766,4277.307617,4233.333496,4291.282227,4250.128418,0.000000,3.000000,55.000000,,,,0.000000,4.000000,4.000000,4.000000,4.000000,4.000000,4.000000,4.000000,4.000000,4.000000,4.000000,4.000000,4.000000,4.000000,4.000000,100.000000,,,,,,,,,,,,,,,,,,,,,,,,,,,,
1649268824.794066,1649268824.811221,58.000000,0.000000,4267.692383,4233.589844,4257.820313,4259.230957,4261.282227,4254.743652,4247.820313,4258.846191,4260.256348,4267.179688,4284.615234,4235.256348,4296.282227,4251.538574,0.000000,3.000000,55.000000,,,,0.000000,4.000000,4.000000,4.000000,4.000000,4.000000,4.000000,4.000000,4.000000,4.000000,4.000000,4.000000,4.000000,4.000000,4.000000,100.000000,,,,,,,,,,,,,,,,,,,,,,,,,,,,
1649268824.801888,1649268824.819047,59.000000,0.000000,4261.282227,4230.000000,4250.897461,4244.358887,4257.307617,4248.205078,4246.922852,4247.436035,4246.282227,4261.153809,4265.641113,4232.307617,4287.051270,4244.615234,0.000000,3.000000,55.000000,,,,0.000000,4.000000,4.000000,4.000000,4.000000,4.000000,4.000000,4.000000,4.000000,4.000000,4.000000,4.000000,4.000000,4.000000,4.000000,100.000000,,,,,,,,,,,,,,,,,,,,,,,,,,,,
1649268824.809710,1649268824.826773,60.000000,0.000000,4257.563965,4229.358887,4258.077148,4244.743652,4243.205078,4250.000000,4249.358887,4248.589844,4256.025879,4264.358887,4264.230957,4232.692383,4289.615234,4245.769043,0.000000,3.000000,55.000000,,,,0.000000,4.000000,4.000000,4.000000,4.000000,4.000000,4.000000,4.000000,4.000000,4.000000,4.000000,4.000000,4.000000,4.000000,4.000000,100.000000,,,,,,,,,,,,,,,,,15.000000,0.000000,0.132456,-0.653564,0.186890,-0.721375,0.903822,-0.455085,0.071778,-32.748913,-110.209808,-3.738460
1649268824.817532,1649268824.834498,61.000000,0.000000,4261.025879,4231.410156,4262.179688,4253.333496,4244.743652,4251.538574,4246.282227,4251.922852,4266.025879,4266.794922,4278.717773,4235.000000,4296.794922,4249.871582,0.000000,3.000000,55.000000,,,,0.000000,4.000000,4.000000,4.000000,4.000000,4.000000,4.000000,4.000000,4.000000,4.000000,4.000000,4.000000,4.000000,4.000000,4.000000,100.000000,,,,,,,,,,,,,,,,,,,,,,,,,,,,
1649268824.825354,1649268824.842224,62.000000,0.000000,4261.794922,4230.384766,4257.307617,4250.000000,4253.333496,4251.153809,4240.384766,4247.436035,4260.769043,4266.025879,4277.436035,4236.922852,4292.948730,4248.974121,0.000000,3.000000,55.000000,,,,0.000000,4.000000,4.000000,4.000000,4.000000,4.000000,4.000000,4.000000,4.000000,4.000000,4.000000,4.000000,4.000000,4.000000,4.000000,100.000000,,,,,,,,,,,,,,,,,,,,,,,,,,,,
1649268824.833176,1649268824.850050,63.000000,0.000000,4264.615234,4234.358887,4259.102539,4250.641113,4249.230957,4250.897461,4242.051270,4248.205078,4259.487305,4266.282227,4276.922852,4245.897461,4293.846191,4256.410156,0.000000,3.000000,55.000000,,,,0.000000,4.000000,4.000000,4.000000,4.000000,4.000000,4.000000,4.000000,4.000000,4.000000,4.000000,4.000000,4.000000,4.000000,4.000000,100.000000,,,,,,,,,,,,,,,,,,,,,,,,,,,,
1649268824.840998,1649268824.857775,64.000000,0.000000,4269.102539,4238.461426,4262.051270,4257.179688,4251.666504,4251.282227,4245.512695,4248.846191,4263.205078,4265.897461,4280.897461,4247.307617,4296.794922,4267.051270,2746.000000,3.000000,55.000000,,,,0.000000,4.000000,4.000000,4.000000,4.000000,4.000000,4.000000,4.000000,4.000000,4.000000,4.000000,4.000000,4.000000,4.000000,4.000000,100.000000,,,,,,,,,,,,,,,,,16.000000,0.000000,0.132616,-0.653564,0.187012,-0.721313,0.904799,-0.442878,0.078614,-33.945221,-111.256584,-2.691691
1649268824.848820,1649268824.865601,65.000000,0.000000,4265.641113,4234.358887,4260.641113,4255.769043,4262.563965,4255.769043,4243.974121,4243.461426,4257.436035,4263.461426,4268.589844,4235.384766,4293.333496,4265.000000,3534.000000,3.000000,55.000000,,,,0.000000,4.000000,4.000000,4.000000,4.000000,4.000000,4.000000,4.000000,4.000000,4.000000,4.000000,4.000000,4.000000,4.000000,4.000000,100.000000,,,,,,,,,,,,,,,,,,,,,,,,,,,,
1649268824.856642,1649268824.873327,66.000000,0.000000,4264.743652,4237.179688,4261.025879,4254.487305,4264.871582,4262.051270,4245.128418,4246.538574,4252.436035,4265.512695,4260.641113,4238.461426,4292.563965,4262.436035,3575.000000,3.000000,55.000000,,,,0.000000,4.000000,4.000000,4.000000,4.000000,4.000000,4.000000,4.000000,4.000000,4.000000,4.000000,4.000000,4.000000,4.000000,4.000000,100.000000,,,,,,,,,,,,,,,,,,,,,,,,,,,,
1649268824.864464,1649268824.881152,67.000000,0.000000,4274.487305,4248.333496,4259.743652,4259.615234,4264.102539,4259.358887,4247.436035,4252.179688,4259.615234,4267.436035,4267.820313,4248.717773,4295.000000,4266.153809,3292.000000,3.000000,55.000000,,,,0.000000,4.000000,4.000000,4.000000,4.000000,4.000000,4.000000,4.000000,4.000000,4.000000,4.000000,4.000000,4.000000,4.000000,4.000000,100.000000,,,,,,,,,,,,,,,,,,,,,,,,,,,,
1649268824.872286,1649268824.888878,68.000000,0.000000,4279.743652,4250.256348,4261.538574,4264.102539,4265.256348,4253.205078,4245.897461,4247.948730,4263.461426,4264.743652,4265.769043,4240.769043,4293.333496,4264.487305,3616.000000,3.000000,55.000000,,,,0.000000,4.000000,4.000000,4.000000,4.000000,4.000000,4.000000,4.000000,4.000000,4.000000,4.000000,4.000000,4.000000,4.000000,4.000000,100.000000,,,,,,,,,,,,,,,,,17.000000,0.000000,0.132173,-0.653687,0.187134,-0.721252,0.910170,-0.450202,0.073243,-33.047989,-110.957504,-2.691691
1649268824.880108,1649268824.896704,69.000000,0.000000,4273.077148,4245.512695,4261.025879,4262.179688,4266.794922,4256.794922,4246.153809,4242.820313,4251.538574,4262.563965,4259.871582,4229.743652,4294.487305,4260.256348,3419.000000,3.000000,55.000000,,,,0.000000,4.000000,4.000000,4.000000,4.000000,4.000000,4.000000,4.000000,4.000000,4.000000,4.000000,4.000000,4.000000,4.000000,4.000000,100.000000,,,,,,,,,,,,,,,,,,,,,,,,,,,,
1649268824.887930,1649268824.904429,70.000000,0.000000,4273.974121,4247.179688,4253.589844,4258.846191,4264.230957,4259.487305,4247.820313,4245.641113,4245.641113,4262.692383,4261.538574,4231.922852,4295.128418,4260.128418,3528.000000,3.000000,55.000000,,,,0.000000,4.000000,4.000000,4.000000,4.000000,4.000000,4.000000,4.000000,4.000000,4.000000,4.000000,4.000000,4.000000,4.000000,4.000000,100.000000,,,,,,,,,,,,,,,,,,,,,,,,,,,,
1649268824.895752,1649268824.912255,71.000000,0.000000,4279.230957,4246.794922,4251.410156,4259.230957,4253.717773,4252.948730,4245.769043,4247.436035,4258.461426,4263.717773,4259.358887,4233.846191,4285.769043,4259.615234,3623.000000,3.000000,55.000000,,,,0.000000,4.000000,4.000000,4.000000,4.000000,4.000000,4.000000,4.000000,4.000000,4.000000,4.000000,4.000000,4.000000,4.000000,4.000000,100.000000,,,,,,,,,,,,,,,,,,,,,,,,,,,,
1649268824.903574,1649268824.919981,72.000000,0.000000,4270.512695,4242.563965,4257.051270,4258.846191,4244.615234,4248.077148,4245.769043,4245.000000,4262.948730,4263.205078,4256.922852,4233.846191,4280.641113,4260.000000,3583.000000,3.000000,55.000000,,,,0.000000,4.000000,4.000000,4.000000,4.000000,4.000000,4.000000,4.000000,4.000000,4.000000,4.000000,4.000000,4.000000,4.000000,4.000000,100.000000,,,,,,,,,,,,,,,,,18.000000,0.000000,0.131809,-0.653625,0.187134,-0.721375,0.903334,-0.439948,0.081056,-32.898453,-110.807968,-3.887999
1649268824.911396,1649268824.927806,73.000000,0.000000,4265.384766,4243.077148,4260.769043,4257.307617,4254.743652,4251.153809,4248.077148,4246.666504,4252.948730,4261.666504,4262.051270,4239.743652,4283.717773,4262.179688,3700.000000,3.000000,55.000000,,,,0.000000,4.000000,4.000000,4.000000,4.000000,4.000000,4.000000,4.000000,4.000000,4.000000,4.000000,4.000000,4.000000,4.000000,4.000000,100.000000,,,,,,,,,,,,,,,,,,,,,,,,,,,,
1649268824.919217,1649268824.935532,74.000000,0.000000,4276.922852,4253.461426,4262.307617,4258.333496,4267.307617,4256.282227,4247.307617,4247.051270,4247.436035,4261.025879,4266.025879,4237.563965,4289.487305,4263.461426,3419.000000,3.000000,55.000000,,,,0.000000,4.000000,4.000000,4.000000,4.000000,4.000000,4.000000,4.000000,4.000000,4.000000,4.000000,4.000000,4.000000,4.000000,4.000000,100.000000,,,,,,,,,,,,,,,,,,,,,,,,,,,,
1649268824.927040,1649268824.943358,75.000000,0.000000,4283.461426,4260.000000,4261.922852,4262.948730,4259.102539,4257.820313,4247.436035,4242.820313,4251.153809,4262.179688,4265.897461,4230.641113,4290.641113,4263.717773,3584.000000,3.000000,55.000000,,,,0.000000,4.000000,4.000000,4.000000,4.000000,4.000000,4.000000,4.000000,4.000000,4.000000,4.000000,4.000000,4.000000,4.000000,4.000000,100.000000,,,,,,,,,,,,,,,,,,,,,,,,,,,,
1649268824.934862,1649268824.951083,76.000000,0.000000,4274.615234,4251.410156,4261.282227,4262.820313,4252.563965,4261.282227,4248.461426,4242.692383,4253.205078,4262.948730,4268.077148,4238.589844,4283.717773,4261.025879,3521.000000,3.000000,55.000000,,,,0.000000,4.000000,4.000000,4.000000,4.000000,4.000000,4.000000,4.000000,4.000000,4.000000,4.000000,4.000000,4.000000,4.000000,4.000000,100.000000,,,,,,,,,,,,,,,,,19.000000,0.000000,0.131733,-0.653503,0.187378,-0.721436,0.904311,-0.446784,0.062013,-34.094757,-111.107040,-2.841230
1649268824.942683,1649268824.958909,77.000000,0.000000,4274.615234,4251.794922,4262.563965,4262.948730,4265.641113,4258.846191,4247.051270,4243.205078,4251.410156,4262.179688,4275.000000,4248.461426,4283.461426,4263.589844,3394.000000,3.000000,55.000000,,,,0.000000,4.000000,4.000000,4.000000,4.000000,4.000000,4.000000,4.000000,4.000000,4.000000,4.000000,4.000000,4.000000,4.000000,4.000000,100.000000,,,,,,,,,,,,,,,,,,,,,,,,,,,,
1649268824.950505,1649268824.966635,78.000000,0.000000,4276.666504,4258.077148,4254.358887,4264.615234,4268.974121,4252.307617,4246.666504,4236.538574,4249.871582,4261.410156,4279.358887,4239.871582,4293.077148,4274.102539,3419.000000,3.000000,55.000000,,,,0.000000,4.000000,4.000000,4.000000,4.000000,4.000000,4.000000,4.000000,4.000000,4.000000,4.000000,4.000000,4.000000,4.000000,4.000000,100.000000,,,,,,,,,,,,,,,,,,,,,,,,,,,,
1649268824.958327,1649268824.974460,79.000000,0.000000,4266.922852,4251.153809,4246.794922,4260.641113,4255.641113,4255.256348,4247.179688,4230.384766,4248.333496,4262.051270,4279.102539,4230.384766,4295.256348,4279.230957,3584.000000,3.000000,55.000000,,,,0.000000,4.000000,4.000000,4.000000,4.000000,4.000000,4.000000,4.000000,4.000000,4.000000,4.000000,4.000000,4.000000,4.000000,4.000000,100.000000,,,,,,,,,,,,,,,,,,,,,,,,,,,,
1649268824.966149,1649268824.982186,80.000000,0.000000,4261.153809,4245.000000,4252.820313,4258.333496,4250.256348,4261.666504,4247.307617,4237.051270,4249.871582,4264.102539,4279.871582,4233.205078,4286.025879,4278.974121,3521.000000,3.000000,55.000000,,,,0.000000,4.000000,4.000000,4.000000,4.000000,4.000000,4.000000,4.000000,4.000000,4.000000,4.000000,4.000000,4.000000,4.000000,4.000000,100.000000,,,,,,,,,,,,,,,,,20.000000,0.000000,0.131070,-0.653687,0.187439,-0.721375,0.908217,-0.434577,0.075196,-34.543373,-111.107040,-2.841230
1649268824.973971,1649268824.990012,81.000000,0.000000,4260.512695,4249.230957,4255.641113,4261.153809,4250.384766,4253.717773,4247.179688,4245.000000,4248.846191,4261.153809,4275.128418,4232.436035,4279.743652,4277.436035,3394.000000,3.000000,55.000000,,,,0.000000,4.000000,4.000000,4.000000,4.000000,4.000000,4.000000,4.000000,4.000000,4.000000,4.000000,4.000000,4.000000,4.000000,4.000000,100.000000,,,,,,,,,,,,,,,,,,,,,,,,,,,,
1649268824.981793,1649268824.997737,82.000000,0.000000,4263.077148,4250.128418,4253.077148,4263.333496,4252.436035,4247.436035,4247.179688,4244.871582,4247.948730,4260.897461,4268.461426,4230.128418,4280.128418,4279.615234,3419.000000,3.000000,55.000000,,,,0.000000,4.000000,4.000000,4.000000,4.000000,4.000000,4.000000,4.000000,4.000000,4.000000,4.000000,4.000000,4.000000,4.000000,4.000000,100.000000,,,,,,,,,,,,,,,,,,,,,,,,,,,,
1649268824.989615,1649268825.005563,83.000000,0.000000,4271.153809,4251.410156,4259.102539,4264.615234,4261.410156,4257.051270,4249.102539,4245.384766,4253.717773,4269.743652,4275.897461,4235.256348,4289.102539,4286.025879,3584.000000,3.000000,55.000000,,,,0.000000,4.000000,4.000000,4.000000,4.000000,4.000000,4.000000,4.000000,4.000000,4.000000,4.000000,4.000000,4.000000,4.000000,4.000000,100.000000,,,,,,,,,,,,,,,,,,,,,,,,,,,,
1649268824.997437,1649268825.013289,84.000000,0.000000,4278.077148,4254.871582,4260.512695,4263.717773,4263.077148,4256.282227,4247.948730,4249.102539,4260.256348,4276.025879,4283.205078,4236.025879,4297.563965,4287.563965,3521.000000,3.000000,55.000000,,,,0.000000,4.000000,4.000000,4.000000,4.000000,4.000000,4.000000,4.000000,4.000000,4.000000,4.000000,4.000000,4.000000,4.000000,4.000000,100.000000,,,,,,,,,,,,,,,,,21.000000,0.000000,0.130723,-0.653809,0.187256,-0.721375,0.908217,-0.435554,0.086915,-33.047989,-111.705193,-2.990768
1649268825.005259,1649268825.021114,85.000000,0.000000,4275.897461,4250.256348,4248.205078,4261.538574,4258.077148,4248.461426,4242.563965,4244.615234,4259.487305,4273.846191,4270.641113,4232.051270,4290.128418,4281.153809,3394.000000,3.000000,55.000000,,,,0.000000,4.000000,4.000000,4.000000,4.000000,4.000000,4.000000,4.000000,4.000000,4.000000,4.000000,4.000000,4.000000,4.000000,4.000000,100.000000,1.000000,75.000000,4.000000,4.000000,4.000000,4.000000,4.000000,1.000000,4.000000,4.000000,4.000000,4.000000,4.000000,4.000000,4.000000,4.000000,,,,,,,,,,,,
1649268825.013081,1649268825.028840,86.000000,0.000000,4267.692383,4248.077148,4246.666504,4261.794922,4261.410156,4249.102539,4241.410156,4235.128418,4252.692383,4267.051270,4260.769043,4232.563965,4280.256348,4280.256348,3419.000000,3.000000,55.000000,,,,0.000000,4.000000,4.000000,4.000000,4.000000,4.000000,4.000000,4.000000,4.000000,4.000000,4.000000,4.000000,4.000000,4.000000,4.000000,100.000000,,,,,,,,,,,,,,,,,,,,,,,,,,,,
1649268825.020903,1649268825.036665,87.000000,0.000000,4264.487305,4248.846191,4259.358887,4264.358887,4263.589844,4249.358887,4245.384766,4235.641113,4248.333496,4261.922852,4264.487305,4233.974121,4276.153809,4281.153809,3584.000000,3.000000,55.000000,,,,0.000000,4.000000,4.000000,4.000000,4.000000,4.000000,4.000000,4.000000,4.000000,4.000000,4.000000,4.000000,4.000000,4.000000,4.000000,100.000000,,,,,,,,,,,,,,,,,,,,,,,,,,,,
1649268825.028725,1649268825.044391,88.000000,0.000000,4272.563965,4251.922852,4264.230957,4266.922852,4262.307617,4253.205078,4246.282227,4243.333496,4249.615234,4260.128418,4262.307617,4234.358887,4276.153809,4280.512695,3521.000000,3.000000,55.000000,,,,0.000000,4.000000,4.000000,4.000000,4.000000,4.000000,4.000000,4.000000,4.000000,4.000000,4.000000,4.000000,4.000000,4.000000,4.000000,100.000000,,,,,,,,,,,,,,,,,22.000000,0.000000,0.131072,-0.653809,0.187012,-0.721375,0.911147,-0.444343,0.082033,-34.094757,-111.107040,-1.794461
1649268825.036547,1649268825.052117,89.000000,0.000000,4281.666504,4260.897461,4258.461426,4267.692383,4266.922852,4258.589844,4245.769043,4247.307617,4253.205078,4262.820313,4254.615234,4232.948730,4278.333496,4286.153809,3394.000000,3.000000,55.000000,,,,0.000000,4.000000,4.000000,4.000000,4.000000,4.000000,4.000000,4.000000,4.000000,4.000000,4.000000,4.000000,4.000000,4.000000,4.000000,100.000000,,,,,,,,,,,,,,,,,,,,,,,,,,,,
1649268825.044369,1649268825.059943,90.000000,0.000000,4278.461426,4261.666504,4257.948730,4266.153809,4263.205078,4253.974121,4245.769043,4246.153809,4252.436035,4265.769043,4256.025879,4230.512695,4278.333496,4287.563965,3419.000000,3.000000,55.000000,,,,0.000000,4.000000,4.000000,4.000000,4.000000,4.000000,4.000000,4.000000,4.000000,4.000000,4.000000,4.000000,4.000000,4.000000,4.000000,100.000000,,,,,,,,,,,,,,,,,,,,,,,,,,,,
1649268825.052191,1649268825.067768,91.000000,0.000000,4276.794922,4252.820313,4260.512695,4263.846191,4259.230957,4247.692383,4244.487305,4245.512695,4246.410156,4261.794922,4262.948730,4231.794922,4277.820313,4287.179688,3584.000000,3.000000,55.000000,,,,0.000000,4.000000,4.000000,4.000000,4.000000,4.000000,4.000000,4.000000,4.000000,4.000000,4.000000,4.000000,4.000000,4.000000,4.000000,100.000000,,,,,,,,,,,,,,,,,,,,,,,,,,,,
1649268825.060013,1649268825.075494,92.000000,0.000000,4279.230957,4248.077148,4253.846191,4263.077148,4264.743652,4250.769043,4244.743652,4244.615234,4245.256348,4257.692383,4264.102539,4234.743652,4280.000000,4289.487305,3521.000000,3.000000,55.000000,,,,0.000000,4.000000,4.000000,4.000000,4.000000,4.000000,4.000000,4.000000,4.000000,4.000000,4.000000,4.000000,4.000000,4.000000,4.000000,100.000000,,,,,,,,,,,,,,,,,23.000000,0.000000,0.131419,-0.653809,0.186768,-0.721375,0.896010,-0.439948,0.077150,-34.842449,-110.359352,-2.093538
1649268825.067835,1649268825.083220,93.000000,0.000000,4274.615234,4248.461426,4248.205078,4260.641113,4256.794922,4250.512695,4242.436035,4238.589844,4250.000000,4261.282227,4264.615234,4232.179688,4280.256348,4283.205078,3394.000000,3.000000,55.000000,,,,0.000000,4.000000,4.000000,4.000000,4.000000,4.000000,4.000000,4.000000,4.000000,4.000000,4.000000,4.000000,4.000000,4.000000,4.000000,100.000000,,,,,,,,,,,,,,,,,,,,,,,,,,,,
1649268825.075657,1649268825.091045,94.000000,0.000000,4274.230957,4251.282227,4248.974121,4258.077148,4246.666504,4245.641113,4239.230957,4232.051270,4249.358887,4263.974121,4265.384766,4226.794922,4278.461426,4279.615234,3419.000000,3.000000,55.000000,,,,0.000000,4.000000,4.000000,4.000000,4.000000,4.000000,4.000000,4.000000,4.000000,4.000000,4.000000,4.000000,4.000000,4.000000,4.000000,100.000000,,,,,,,,,,,,,,,,,,,,,,,,,,,,
1649268825.083479,1649268825.098871,95.000000,0.000000,4282.051270,4253.333496,4250.512695,4262.179688,4260.384766,4245.769043,4242.179688,4235.769043,4244.230957,4260.000000,4264.615234,4228.461426,4279.102539,4288.717773,3584.000000,3.000000,55.000000,,,,0.000000,4.000000,4.000000,4.000000,4.000000,4.000000,4.000000,4.000000,4.000000,4.000000,4.000000,4.000000,4.000000,4.000000,4.000000,100.000000,,,,,,,,,,,,,,,,,,,,,,,,,,,,
1649268825.091301,1649268825.106597,96.000000,0.000000,4284.615234,4250.128418,4250.897461,4267.563965,4272.820313,4248.077148,4244.487305,4244.487305,4248.717773,4263.205078,4269.102539,4233.461426,4280.769043,4295.000000,3521.000000,3.000000,55.000000,,,,0.000000,4.000000,4.000000,4.000000,4.000000,4.000000,4.000000,4.000000,4.000000,4.000000,4.000000,4.000000,4.000000,4.000000,4.000000,100.000000,,,,,,,,,,,,,,,,,24.000000,0.000000,0.131451,-0.653870,0.186768,-0.721313,0.908217,-0.445319,0.072755,-32.898453,-110.060272,-2.542153
1649268825.099123,1649268825.114322,97.000000,0.000000,4284.230957,4248.589844,4251.025879,4262.820313,4261.794922,4249.487305,4241.153809,4243.589844,4251.153809,4269.487305,4274.615234,4234.358887,4280.897461,4291.922852,3394.000000,3.000000,55.000000,,,,0.000000,4.000000,4.000000,4.000000,4.000000,4.000000,4.000000,4.000000,4.000000,4.000000,4.000000,4.000000,4.000000,4.000000,4.000000,100.000000,,,,,,,,,,,,,,,,,,,,,,,,,,,,
1649268825.106945,1649268825.122148,98.000000,0.000000,4290.384766,4250.897461,4253.333496,4259.615234,4257.436035,4250.897461,4244.102539,4243.205078,4249.358887,4267.179688,4277.051270,4234.230957,4280.512695,4292.563965,3419.000000,3.000000,55.000000,,,,0.000000,4.000000,4.000000,4.000000,4.000000,4.000000,4.000000,4.000000,4.000000,4.000000,4.000000,4.000000,4.000000,4.000000,4.000000,100.000000,,,,,,,,,,,,,,,,,,,,,,,,,,,,
1649268825.114767,1649268825.129973,99.000000,0.000000,4296.282227,4250.512695,4258.333496,4269.871582,4270.256348,4253.589844,4247.307617,4247.820313,4255.769043,4263.974121,4277.948730,4236.282227,4279.358887,4295.512695,3584.000000,3.000000,55.000000,,,,0.000000,4.000000,4.000000,4.000000,4.000000,4.000000,4.000000,4.000000,4.000000,4.000000,4.000000,4.000000,4.000000,4.000000,4.000000,100.000000,,,,,,,,,,,,,,,,,,,,,,,,,,,,
1649268825.122589,1649268825.137699,100.000000,0.000000,4296.282227,4254.743652,4263.077148,4283.205078,4276.410156,4252.179688,4240.641113,4246.922852,4257.307617,4264.230957,4277.051270,4238.077148,4281.922852,4296.410156,3521.000000,3.000000,55.000000,,,,0.000000,4.000000,4.000000,4.000000,4.000000,4.000000,4.000000,4.000000,4.000000,4.000000,4.000000,4.000000,4.000000,4.000000,4.000000,100.000000,,,,,,,,,,,,,,,,,25.000000,0.000000,0.131470,-0.653931,0.187012,-0.721191,0.908217,-0.430182,0.084962,-33.646145,-111.107040,-2.542153
1649268825.130411,1649268825.145425,101.000000,0.000000,4293.461426,4260.769043,4262.436035,4279.615234,4268.205078,4247.563965,4241.025879,4244.743652,4248.333496,4265.769043,4273.846191,4237.307617,4285.256348,4296.538574,3394.000000,3.000000,55.000000,,,,0.000000,4.000000,4.000000,4.000000,4.000000,4.000000,4.000000,4.000000,4.000000,4.000000,4.000000,4.000000,4.000000,4.000000,4.000000,100.000000,,,,,,,,,,,,,,,,,,,,,,,,,,,,
1649268825.138233,1649268825.153251,102.000000,0.000000,4292.563965,4252.820313,4260.256348,4267.179688,4259.871582,4247.820313,4242.307617,4241.282227,4245.000000,4265.512695,4268.077148,4236.025879,4283.205078,4294.487305,3419.000000,3.000000,55.000000,,,,0.000000,4.000000,4.000000,4.000000,4.000000,4.000000,4.000000,4.000000,4.000000,4.000000,4.000000,4.000000,4.000000,4.000000,4.000000,100.000000,,,,,,,,,,,,,,,,,,,,,,,,,,,,
1649268825.146054,1649268825.160976,103.000000,0.000000,4292.692383,4240.256348,4260.512695,4267.051270,4263.205078,4249.230957,4235.769043,4235.000000,4247.692383,4261.410156,4263.846191,4233.589844,4281.538574,4290.512695,3584.000000,3.000000,55.000000,,,,0.000000,4.000000,4.000000,4.000000,4.000000,4.000000,4.000000,4.000000,4.000000,4.000000,4.000000,4.000000,4.000000,4.000000,4.000000,100.000000,,,,,,,,,,,,,,,,,,,,,,,,,,,,
1649268825.153876,1649268825.168802,104.000000,0.000000,4287.820313,4234.487305,4257.820313,4270.256348,4268.077148,4247.307617,4237.179688,4235.512695,4248.846191,4262.563965,4266.410156,4231.153809,4278.461426,4285.256348,3521.000000,3.000000,55.000000,,,,0.000000,4.000000,4.000000,4.000000,4.000000,4.000000,4.000000,4.000000,4.000000,4.000000,4.000000,4.000000,4.000000,4.000000,4.000000,100.000000,,,,,,,,,,,,,,,,,26.000000,0.000000,0.131351,-0.653870,0.187073,-0.721252,0.896498,-0.432624,0.074220,-33.496605,-109.761200,-4.486153
1649268825.161698,1649268825.176528,105.000000,0.000000,4278.461426,4227.307617,4250.641113,4264.743652,4266.153809,4247.179688,4242.820313,4242.307617,4250.897461,4266.410156,4267.563965,4231.282227,4267.307617,4275.128418,3394.000000,3.000000,55.000000,,,,0.000000,4.000000,4.000000,4.000000,4.000000,4.000000,4.000000,4.000000,4.000000,4.000000,4.000000,4.000000,4.000000,4.000000,4.000000,100.000000,,,,,,,,,,,,,,,,,,,,,,,,,,,,
1649268825.169520,1649268825.184253,106.000000,0.000000,4272.179688,4216.410156,4244.871582,4257.436035,4257.307617,4247.179688,4236.666504,4240.512695,4246.538574,4257.563965,4258.461426,4226.025879,4257.436035,4264.743652,3419.000000,3.000000,55.000000,,,,0.000000,4.000000,4.000000,4.000000,4.000000,4.000000,4.000000,4.000000,4.000000,4.000000,4.000000,4.000000,4.000000,4.000000,4.000000,100.000000,,,,,,,,,,,,,,,,,,,,,,,,,,,,
1649268825.177342,1649268825.192079,107.000000,0.000000,4273.846191,4215.897461,4244.487305,4251.922852,4250.256348,4243.205078,4231.538574,4234.487305,4239.615234,4245.897461,4256.410156,4222.179688,4257.179688,4262.051270,3584.000000,3.000000,55.000000,,,,0.000000,4.000000,4.000000,4.000000,4.000000,4.000000,4.000000,4.000000,4.000000,4.000000,4.000000,4.000000,4.000000,4.000000,4.000000,100.000000,,,,,,,,,,,,,,,,,,,,,,,,,,,,
1649268825.185164,1649268825.199805,108.000000,0.000000,4276.538574,4223.333496,4245.128418,4248.846191,4255.256348,4242.692383,4235.000000,4233.974121,4237.948730,4248.205078,4266.794922,4225.128418,4263.461426,4265.000000,3521.000000,3.000000,55.000000,,,,0.000000,4.000000,4.000000,4.000000,4.000000,4.000000,4.000000,4.000000,4.000000,4.000000,4.000000,4.000000,4.000000,4.000000,4.000000,100.000000,,,,,,,,,,,,,,,,,27.000000,0.000000,0.131709,-0.653625,0.187439,-0.721313,0.908217,-0.452644,0.069337,-33.047989,-112.303352,-1.943999
1649268825.192986,1649268825.207630,109.000000,0.000000,4278.846191,4228.717773,4245.769043,4256.153809,4264.743652,4247.051270,4234.230957,4232.948730,4236.666504,4251.282227,4263.205078,4226.025879,4266.794922,4265.897461,3394.000000,3.000000,55.000000,,,,0.000000,4.000000,4.000000,4.000000,4.000000,4.000000,4.000000,4.000000,4.000000,4.000000,4.000000,4.000000,4.000000,4.000000,4.000000,100.000000,,,,,,,,,,,,,,,,,,,,,,,,,,,,
1649268825.200808,1649268825.215356,110.000000,0.000000,4284.615234,4235.256348,4249.358887,4265.641113,4266.410156,4248.717773,4233.077148,4233.333496,4237.948730,4247.692383,4247.179688,4223.717773,4256.666504,4263.589844,3419.000000,3.000000,55.000000,,,,0.000000,4.000000,4.000000,4.000000,4.000000,4.000000,4.000000,4.000000,4.000000,4.000000,4.000000,4.000000,4.000000,4.000000,4.000000,100.000000,,,,,,,,,,,,,,,,,,,,,,,,,,,,
1649268825.208630,1649268825.223182,111.000000,0.000000,4291.922852,4247.436035,4250.256348,4265.000000,4263.077148,4246.794922,4234.487305,4234.615234,4242.820313,4247.563965,4248.717773,4221.666504,4250.128418,4265.641113,3584.000000,3.000000,55.000000,,,,0.000000,4.000000,4.000000,4.000000,4.000000,4.000000,4.000000,4.000000,4.000000,4.000000,4.000000,4.000000,4.000000,4.000000,4.000000,100.000000,,,,,,,,,,,,,,,,,,,,,,,,,,,,
1649268825.216452,1649268825.230907,112.000000,0.000000,4292.820313,4251.153809,4247.948730,4264.487305,4265.512695,4245.128418,4235.384766,4233.974121,4247.436035,4251.410156,4263.717773,4220.512695,4262.692383,4274.615234,3521.000000,3.000000,55.000000,,,,0.000000,4.000000,4.000000,4.000000,4.000000,4.000000,4.000000,4.000000,4.000000,4.000000,4.000000,4.000000,4.000000,4.000000,4.000000,100.000000,,,,,,,,,,,,,,,,,28.000000,0.000000,0.131838,-0.653564,0.187561,-0.721313,0.909194,-0.423835,0.064454,-34.543373,-111.406120,-2.093538
1649268825.224274,1649268825.238733,113.000000,0.000000,4283.589844,4238.974121,4248.846191,4259.487305,4264.230957,4246.922852,4236.153809,4234.743652,4246.025879,4253.589844,4259.743652,4220.641113,4266.666504,4277.820313,3394.000000,3.000000,55.000000,,,,0.000000,4.000000,4.000000,4.000000,4.000000,4.000000,4.000000,4.000000,4.000000,4.000000,4.000000,4.000000,4.000000,4.000000,4.000000,100.000000,,,,,,,,,,,,,,,,,,,,,,,,,,,,
1649268825.232096,1649268825.246459,114.000000,0.000000,4277.307617,4230.897461,4245.897461,4250.384766,4250.641113,4243.077148,4232.820313,4233.461426,4238.846191,4253.589844,4244.358887,4220.000000,4252.563965,4266.794922,3419.000000,3.000000,55.000000,,,,0.000000,4.000000,4.000000,4.000000,4.000000,4.000000,4.000000,4.000000,4.000000,4.000000,4.000000,4.000000,4.000000,4.000000,4.000000,100.000000,,,,,,,,,,,,,,,,,,,,,,,,,,,,
1649268825.239918,1649268825.254284,115.000000,0.000000,4280.384766,4232.307617,4237.563965,4248.205078,4243.717773,4234.358887,4228.205078,4229.615234,4233.589844,4247.948730,4245.000000,4214.102539,4247.051270,4258.974121,3584.000000,3.000000,55.000000,,,,0.000000,4.000000,4.000000,4.000000,4.000000,4.000000,4.000000,4.000000,4.000000,4.000000,4.000000,4.000000,4.000000,4.000000,4.000000,100.000000,,,,,,,,,,,,,,,,,,,,,,,,,,,,
1649268825.247740,1649268825.262010,116.000000,0.000000,4283.589844,4232.179688,4239.743652,4250.897461,4259.871582,4237.307617,4230.512695,4230.000000,4233.974121,4243.333496,4250.512695,4217.820313,4252.179688,4262.179688,3521.000000,3.000000,55.000000,,,,0.000000,4.000000,4.000000,4.000000,4.000000,4.000000,4.000000,4.000000,4.000000,4.000000,4.000000,4.000000,4.000000,4.000000,4.000000,100.000000,,,,,,,,,,,,,,,,,29.000000,0.000000,0.131807,-0.653503,0.187561,-0.721375,0.902358,-0.450202,0.072267,-32.748913,-111.256584,-2.990768
1649268825.255562,1649268825.269836,117.000000,0.000000,4281.666504,4230.512695,4251.025879,4249.230957,4267.948730,4245.256348,4235.384766,4233.333496,4233.461426,4245.000000,4248.077148,4223.589844,4251.794922,4266.282227,3394.000000,3.000000,55.000000,,,,0.000000,4.000000,4.000000,4.000000,4.000000,4.000000,4.000000,4.000000,4.000000,4.000000,4.000000,4.000000,4.000000,4.000000,4.000000,100.000000,,,,,,,,,,,,,,,,,,,,,,,,,,,,
1649268825.263384,1649268825.277561,118.000000,0.000000,4280.512695,4233.077148,4251.922852,4246.410156,4252.948730,4243.589844,4233.461426,4231.666504,4230.897461,4243.333496,4248.461426,4220.897461,4249.487305,4263.461426,3419.000000,3.000000,55.000000,,,,0.000000,4.000000,4.000000,4.000000,4.000000,4.000000,4.000000,4.000000,4.000000,4.000000,4.000000,4.000000,4.000000,4.000000,4.000000,100.000000,,,,,,,,,,,,,,,,,,,,,,,,,,,,
1649268825.271206,1649268825.285387,119.000000,0.000000,4277.820313,4236.794922,4246.410156,4248.205078,4247.563965,4242.820313,4232.307617,4232.051270,4233.974121,4241.794922,4251.538574,4224.871582,4248.333496,4252.948730,3584.000000,3.000000,55.000000,,,,0.000000,4.000000,4.000000,4.000000,4.000000,4.000000,4.000000,4.000000,4.000000,4.000000,4.000000,4.000000,4.000000,4.000000,4.000000,100.000000,,,,,,,,,,,,,,,,,,,,,,,,,,,,
1649268825.279028,1649268825.293113,120.000000,0.000000,4268.333496,4230.128418,4246.666504,4247.179688,4255.641113,4247.051270,4239.871582,4236.794922,4233.589844,4246.666504,4251.282227,4228.077148,4248.205078,4245.384766,3521.000000,3.000000,55.000000,,,,0.000000,4.000000,4.000000,4.000000,4.000000,4.000000,4.000000,4.000000,4.000000,4.000000,4.000000,4.000000,4.000000,4.000000,4.000000,100.000000,,,,,,,,,,,,,,,,,30.000000,0.000000,0.132195,-0.653442,0.187500,-0.721375,0.909194,-0.447272,0.076173,-33.646145,-110.060272,-3.289845
1649268825.286850,1649268825.300938,121.000000,0.000000,4258.461426,4217.948730,4245.128418,4242.179688,4260.897461,4246.025879,4243.077148,4235.769043,4228.846191,4247.179688,4245.512695,4220.769043,4245.128418,4248.077148,3394.000000,3.000000,55.000000,,,,0.000000,4.000000,4.000000,4.000000,4.000000,4.000000,4.000000,4.000000,4.000000,4.000000,4.000000,4.000000,4.000000,4.000000,4.000000,100.000000,,,,,,,,,,,,,,,,,,,,,,,,,,,,
1649268825.294672,1649268825.308664,122.000000,0.000000,4267.179688,4213.589844,4235.128418,4243.717773,4255.897461,4245.128418,4235.512695,4229.358887,4230.512695,4241.282227,4238.846191,4209.615234,4236.282227,4250.769043,3419.000000,3.000000,55.000000,,,,0.000000,4.000000,4.000000,4.000000,4.000000,4.000000,4.000000,4.000000,4.000000,4.000000,4.000000,4.000000,4.000000,4.000000,4.000000,100.000000,,,,,,,,,,,,,,,,,,,,,,,,,,,,
1649268825.302494,1649268825.316490,123.000000,0.000000,4269.102539,4217.436035,4234.871582,4248.461426,4249.102539,4248.717773,4231.410156,4228.205078,4233.205078,4241.282227,4237.051270,4208.077148,4234.102539,4250.897461,3584.000000,3.000000,55.000000,,,,0.000000,4.000000,4.000000,4.000000,4.000000,4.000000,4.000000,4.000000,4.000000,4.000000,4.000000,4.000000,4.000000,4.000000,4.000000,100.000000,,,,,,,,,,,,,,,,,,,,,,,,,,,,
1649268825.310316,1649268825.324215,124.000000,0.000000,4241.153809,4218.846191,4253.333496,4243.846191,4254.102539,4248.717773,4235.384766,4232.948730,4234.230957,4248.717773,4247.179688,4215.000000,4249.487305,4249.358887,3521.000000,3.000000,55.000000,,,,0.000000,4.000000,4.000000,4.000000,4.000000,4.000000,4.000000,4.000000,4.000000,4.000000,4.000000,4.000000,4.000000,4.000000,4.000000,100.000000,,,,,,,,,,,,,,,,,31.000000,0.000000,0.132379,-0.653320,0.187561,-0.721436,0.898939,-0.451667,0.073732,-32.748913,-111.256584,-1.943999
1649268825.318138,1649268825.332041,125.000000,0.000000,4235.897461,4218.333496,4257.563965,4239.615234,4261.410156,4247.051270,4235.128418,4235.000000,4240.256348,4250.000000,4258.589844,4216.538574,4261.538574,4245.512695,3394.000000,3.000000,55.000000,,,,0.000000,4.000000,4.000000,4.000000,4.000000,4.000000,4.000000,4.000000,4.000000,4.000000,4.000000,4.000000,4.000000,4.000000,4.000000,100.000000,,,,,,,,,,,,,,,,,,,,,,,,,,,,
1649268825.325960,1649268825.339767,126.000000,0.000000,4273.974121,4220.512695,4245.512695,4245.641113,4259.615234,4245.512695,4230.769043,4230.897461,4245.256348,4248.333496,4257.563965,4224.615234,4254.743652,4255.769043,3419.000000,3.000000,55.000000,,,,0.000000,4.000000,4.000000,4.000000,4.000000,4.000000,4.000000,4.000000,4.000000,4.000000,4.000000,4.000000,4.000000,4.000000,4.000000,100.000000,,,,,,,,,,,,,,,,,,,,,,,,,,,,
1649268825.333782,1649268825.347592,127.000000,0.000000,4300.000000,4224.871582,4242.820313,4251.538574,4255.641113,4243.205078,4231.282227,4226.922852,4238.333496,4246.538574,4246.282227,4214.743652,4245.897461,4272.436035,53.000000,3.000000,55.000000,,,,0.000000,4.000000,4.000000,4.000000,4.000000,4.000000,4.000000,4.000000,4.000000,4.000000,4.000000,4.000000,4.000000,4.000000,4.000000,100.000000,,,,,,,,,,,,,,,,,,,,,,,,,,,,
1649268825.341603,1649268825.355318,0.000000,0.000000,4277.051270,4227.692383,4241.282227,4249.615234,4248.974121,4243.589844,4231.666504,4225.512695,4229.102539,4235.641113,4232.179688,4185.641113,4245.256348,4259.487305,2750.000000,3.000000,55.000000,,,,0.000000,4.000000,4.000000,4.000000,4.000000,4.000000,4.000000,4.000000,4.000000,4.000000,4.000000,4.000000,4.000000,4.000000,4.000000,100.000000,,,,,,,,,,,,,,,,,0.000000,0.000000,0.132580,-0.653259,0.187866,-0.721375,0.897963,-0.438483,0.072755,-33.047989,-111.256584,-2.243076
1649268825.349425,1649268825.363143,1.000000,0.000000,4251.282227,4224.230957,4241.794922,4246.794922,4245.641113,4247.436035,4232.436035,4226.025879,4230.128418,4230.000000,4232.436035,4205.512695,4247.051270,4240.256348,3535.000000,3.000000,55.000000,,,,0.000000,4.000000,4.000000,4.000000,4.000000,4.000000,4.000000,4.000000,4.000000,4.000000,4.000000,4.000000,4.000000,4.000000,4.000000,100.000000,,,,,,,,,,,,,,,,,,,,,,,,,,,,
1649268825.357247,1649268825.370969,2.000000,0.000000,4273.205078,4218.974121,4243.077148,4248.717773,4261.153809,4249.615234,4239.743652,4229.615234,4235.384766,4243.717773,4246.025879,4251.025879,4252.563965,4256.794922,3567.000000,3.000000,55.000000,,,,0.000000,4.000000,4.000000,4.000000,4.000000,4.000000,4.000000,4.000000,4.000000,4.000000,4.000000,4.000000,4.000000,4.000000,4.000000,100.000000,,,,,,,,,,,,,,,,,,,,,,,,,,,,
1649268825.365069,1649268825.378795,3.000000,0.000000,4304.871582,4216.410156,4233.205078,4248.589844,4265.256348,4248.205078,4243.974121,4230.128418,4233.717773,4247.436035,4242.948730,4229.615234,4247.563965,4277.051270,3291.000000,3.000000,55.000000,,,,0.000000,4.000000,4.000000,4.000000,4.000000,4.000000,4.000000,4.000000,4.000000,4.000000,4.000000,4.000000,4.000000,4.000000,4.000000,100.000000,,,,,,,,,,,,,,,,,,,,,,,,,,,,
1649268825.372891,1649268825.386520,4.000000,0.000000,4308.077148,4218.205078,4234.487305,4247.307617,4252.692383,4247.436035,4241.922852,4225.128418,4228.846191,4230.256348,4228.333496,4193.846191,4234.871582,4265.641113,3618.000000,3.000000,55.000000,,,,0.000000,4.000000,4.000000,4.000000,4.000000,4.000000,4.000000,4.000000,4.000000,4.000000,4.000000,4.000000,4.000000,4.000000,4.000000,100.000000,,,,,,,,,,,,,,,,,1.000000,0.000000,0.132558,-0.653076,0.188049,-0.721497,0.914076,-0.451667,0.072267,-34.094757,-110.807968,-3.887999
1649268825.380713,1649268825.394346,5.000000,0.000000,4301.922852,4220.000000,4246.410156,4248.846191,4253.205078,4248.846191,4238.717773,4219.615234,4231.153809,4227.948730,4230.384766,4204.230957,4238.333496,4244.743652,3419.000000,3.000000,55.000000,,,,0.000000,4.000000,4.000000,4.000000,4.000000,4.000000,4.000000,4.000000,4.000000,4.000000,4.000000,4.000000,4.000000,4.000000,4.000000,100.000000,,,,,,,,,,,,,,,,,,,,,,,,,,,,
1649268825.388535,1649268825.402072,6.000000,0.000000,4321.153809,4216.153809,4234.358887,4248.846191,4254.871582,4248.333496,4238.461426,4215.256348,4232.179688,4235.384766,4235.384766,4202.179688,4247.051270,4239.487305,3528.000000,3.000000,55.000000,,,,0.000000,4.000000,4.000000,4.000000,4.000000,4.000000,4.000000,4.000000,4.000000,4.000000,4.000000,4.000000,4.000000,4.000000,4.000000,100.000000,,,,,,,,,,,,,,,,,,,,,,,,,,,,
1649268825.396357,1649268825.409897,7.000000,0.000000,4368.589844,4216.025879,4226.666504,4251.794922,4245.512695,4246.538574,4239.743652,4219.487305,4232.692383,4235.128418,4232.307617,4197.051270,4251.410156,4259.230957,3625.000000,3.000000,55.000000,,,,0.000000,4.000000,4.000000,4.000000,4.000000,4.000000,4.000000,4.000000,4.000000,4.000000,4.000000,4.000000,4.000000,4.000000,4.000000,100.000000,,,,,,,,,,,,,,,,,,,,,,,,,,,,
1649268825.404179,1649268825.417623,8.000000,0.000000,4416.153809,4212.692383,4244.871582,4253.333496,4240.256348,4246.922852,4238.717773,4231.666504,4241.794922,4239.615234,4239.615234,4216.922852,4254.487305,4276.282227,3594.000000,3.000000,55.000000,,,,0.000000,4.000000,4.000000,4.000000,4.000000,4.000000,4.000000,4.000000,4.000000,4.000000,4.000000,4.000000,4.000000,4.000000,4.000000,100.000000,,,,,,,,,,,,,,,,,2.000000,0.000000,0.132353,-0.653015,0.188171,-0.721558,0.912123,-0.461433,0.068849,-33.646145,-111.107040,-2.841230
1649268825.412001,1649268825.425349,9.000000,0.000000,4449.615234,4206.666504,4248.589844,4250.641113,4244.743652,4247.563965,4234.743652,4230.641113,4243.077148,4241.794922,4242.948730,4217.307617,4247.307617,4267.307617,3704.000000,3.000000,55.000000,,,,0.000000,4.000000,4.000000,4.000000,4.000000,4.000000,4.000000,4.000000,4.000000,4.000000,4.000000,4.000000,4.000000,4.000000,4.000000,100.000000,,,,,,,,,,,,,,,,,,,,,,,,,,,,
1649268825.419823,1649268825.433174,10.000000,0.000000,4492.820313,4242.692383,4241.794922,4261.794922,4253.589844,4247.436035,4233.461426,4216.410156,4234.743652,4235.641113,4233.333496,4210.641113,4246.282227,4266.666504,3423.000000,3.000000,55.000000,,,,0.000000,4.000000,4.000000,4.000000,4.000000,4.000000,4.000000,4.000000,4.000000,4.000000,4.000000,4.000000,4.000000,4.000000,4.000000,100.000000,,,,,,,,,,,,,,,,,,,,,,,,,,,,
1649268825.427645,1649268825.441000,11.000000,0.000000,4553.846191,4311.794922,4246.922852,4285.000000,4261.410156,4247.820313,4236.025879,4213.974121,4228.846191,4229.743652,4232.692383,4216.410156,4251.410156,4291.794922,3580.000000,3.000000,55.000000,,,,0.000000,4.000000,4.000000,4.000000,4.000000,4.000000,4.000000,4.000000,4.000000,4.000000,4.000000,4.000000,4.000000,4.000000,4.000000,100.000000,,,,,,,,,,,,,,,,,,,,,,,,,,,,
1649268825.435467,1649268825.448726,12.000000,0.000000,4589.615234,4342.692383,4250.512695,4289.743652,4260.769043,4247.051270,4234.230957,4215.128418,4220.641113,4220.256348,4232.179688,4218.461426,4228.974121,4307.051270,3520.000000,3.000000,55.000000,,,,0.000000,4.000000,4.000000,4.000000,4.000000,4.000000,4.000000,4.000000,4.000000,4.000000,4.000000,4.000000,4.000000,4.000000,4.000000,100.000000,,,,,,,,,,,,,,,,,3.000000,0.000000,0.132630,-0.653076,0.188232,-0.721436,0.908705,-0.444831,0.070314,-34.692913,-110.957504,-1.943999
1649268825.443289,1649268825.456451,13.000000,0.000000,4610.128418,4350.512695,4253.461426,4286.794922,4257.563965,4245.384766,4232.307617,4205.384766,4211.922852,4211.666504,4220.769043,4222.820313,4194.230957,4308.461426,3387.000000,3.000000,55.000000,,,,0.000000,4.000000,4.000000,4.000000,4.000000,4.000000,4.000000,4.000000,4.000000,4.000000,4.000000,4.000000,4.000000,4.000000,4.000000,100.000000,,,,,,,,,,,,,,,,,,,,,,,,,,,,
1649268825.451111,1649268825.464277,14.000000,0.000000,4649.615234,4385.641113,4269.615234,4305.769043,4261.025879,4247.307617,4232.692383,4199.615234,4213.205078,4213.461426,4218.589844,4235.384766,4190.256348,4321.666504,3423.000000,3.000000,55.000000,,,,0.000000,4.000000,4.000000,4.000000,4.000000,4.000000,4.000000,4.000000,4.000000,4.000000,4.000000,4.000000,4.000000,4.000000,4.000000,100.000000,,,,,,,,,,,,,,,,,,,,,,,,,,,,
1649268825.458933,1649268825.472103,15.000000,0.000000,4682.692383,4413.589844,4280.384766,4324.615234,4263.974121,4248.077148,4229.230957,4201.922852,4214.102539,4214.615234,4223.333496,4236.922852,4187.436035,4335.256348,3580.000000,3.000000,55.000000,,,,0.000000,4.000000,4.000000,4.000000,4.000000,4.000000,4.000000,4.000000,4.000000,4.000000,4.000000,4.000000,4.000000,4.000000,4.000000,100.000000,,,,,,,,,,,,,,,,,,,,,,,,,,,,
1649268825.466755,1649268825.479828,16.000000,0.000000,4695.769043,4393.461426,4263.717773,4320.256348,4264.487305,4242.948730,4227.948730,4201.666504,4212.820313,4211.666504,4212.692383,4228.717773,4154.230957,4325.256348,0.000000,3.000000,55.000000,,,,0.000000,4.000000,4.000000,4.000000,4.000000,4.000000,4.000000,4.000000,4.000000,4.000000,4.000000,4.000000,4.000000,4.000000,4.000000,100.000000,,,,,,,,,,,,,,,,,4.000000,0.000000,0.132560,-0.653137,0.188538,-0.721313,0.905287,-0.448249,0.086427,-33.646145,-111.406120,-2.093538
1649268825.474577,1649268825.487554,17.000000,0.000000,4706.666504,4363.589844,4247.051270,4312.563965,4267.436035,4238.974121,4230.512695,4199.230957,4217.820313,4215.769043,4209.615234,4228.205078,4138.205078,4310.512695,0.000000,3.000000,55.000000,,,,0.000000,4.000000,4.000000,4.000000,4.000000,4.000000,4.000000,4.000000,4.000000,4.000000,4.000000,4.000000,4.000000,4.000000,4.000000,100.000000,,,,,,,,,,,,,,,,,,,,,,,,,,,,
1649268825.482399,1649268825.495480,18.000000,0.000000,4719.487305,4355.512695,4250.512695,4310.641113,4263.077148,4237.948730,4230.512695,4200.384766,4214.487305,4216.282227,4224.230957,4226.410156,4156.666504,4310.641113,0.000000,3.000000,55.000000,,,,0.000000,4.000000,4.000000,4.000000,4.000000,4.000000,4.000000,4.000000,4.000000,4.000000,4.000000,4.000000,4.000000,4.000000,4.000000,100.000000,,,,,,,,,,,,,,,,,,,,,,,,,,,,
1649268825.490221,1649268825.503305,19.000000,0.000000,4724.230957,4345.128418,4252.179688,4303.846191,4250.641113,4235.512695,4227.051270,4201.410156,4208.077148,4210.512695,4223.846191,4216.538574,4163.974121,4306.538574,0.000000,3.000000,55.000000,,,,0.000000,4.000000,4.000000,4.000000,4.000000,4.000000,4.000000,4.000000,4.000000,4.000000,4.000000,4.000000,4.000000,4.000000,4.000000,100.000000,,,,,,,,,,,,,,,,,,,,,,,,,,,,
1649268825.498043,1649268825.511231,20.000000,0.000000,4725.769043,4326.025879,4245.641113,4295.641113,4245.897461,4234.230957,4227.820313,4200.769043,4213.333496,4210.641113,4211.025879,4212.692383,4151.282227,4292.692383,0.000000,3.000000,55.000000,,,,0.000000,4.000000,4.000000,4.000000,4.000000,4.000000,4.000000,4.000000,4.000000,4.000000,4.000000,4.000000,4.000000,4.000000,4.000000,100.000000,,,,,,,,,,,,,,,,,5.000000,0.000000,0.132378,-0.653259,0.188477,-0.721252,0.912123,-0.443854,0.087892,-33.496605,-110.508888,-2.691691
1649268825.505865,1649268825.519056,21.000000,0.000000,4738.717773,4323.333496,4247.563965,4296.794922,4249.743652,4236.794922,4231.153809,4207.179688,4220.128418,4217.051270,4211.282227,4218.717773,4150.384766,4294.487305,0.000000,3.000000,55.000000,,,,0.000000,4.000000,4.000000,4.000000,4.000000,4.000000,4.000000,4.000000,4.000000,4.000000,4.000000,4.000000,4.000000,4.000000,4.000000,100.000000,1.000000,41.666668,1.000000,3.000000,4.000000,4.000000,4.000000,1.000000,4.000000,4.000000,4.000000,4.000000,4.000000,4.000000,4.000000,4.000000,,,,,,,,,,,,
1649268825.513687,1649268825.526882,22.000000,0.000000,4747.436035,4326.922852,4250.128418,4295.256348,4249.230957,4237.692383,4232.307617,4214.743652,4218.846191,4219.743652,4214.487305,4221.153809,4157.948730,4304.358887,0.000000,3.000000,55.000000,,,,0.000000,4.000000,4.000000,4.000000,4.000000,4.000000,4.000000,4.000000,4.000000,4.000000,4.000000,4.000000,4.000000,4.000000,4.000000,100.000000,,,,,,,,,,,,,,,,,,,,,,,,,,,,
1649268825.521509,1649268825.534708,23.000000,0.000000,4735.641113,4313.974121,4244.743652,4290.256348,4247.692383,4235.897461,4232.692383,4213.717773,4215.641113,4212.948730,4208.077148,4215.128418,4150.897461,4295.512695,0.000000,3.000000,55.000000,,,,0.000000,4.000000,4.000000,4.000000,4.000000,4.000000,4.000000,4.000000,4.000000,4.000000,4.000000,4.000000,4.000000,4.000000,4.000000,100.000000,,,,,,,,,,,,,,,,,,,,,,,,,,,,
1649268825.529331,1649268825.542433,24.000000,0.000000,4719.102539,4301.410156,4243.077148,4292.436035,4246.282227,4235.256348,4233.717773,4212.820313,4216.025879,4208.077148,4203.077148,4210.128418,4142.307617,4281.282227,0.000000,3.000000,55.000000,,,,0.000000,4.000000,4.000000,4.000000,4.000000,4.000000,4.000000,4.000000,4.000000,4.000000,4.000000,4.000000,4.000000,4.000000,4.000000,100.000000,,,,,,,,,,,,,,,,,6.000000,0.000000,0.132741,-0.653320,0.188477,-0.721130,0.905776,-0.448737,0.067872,-34.244297,-111.705193,-1.196307
1649268825.537153,1649268825.550159,25.000000,0.000000,4710.897461,4298.589844,4245.641113,4290.769043,4238.333496,4235.384766,4233.974121,4217.436035,4217.051270,4213.077148,4206.538574,4211.666504,4139.102539,4278.589844,0.000000,3.000000,55.000000,,,,0.000000,4.000000,4.000000,4.000000,4.000000,4.000000,4.000000,4.000000,4.000000,4.000000,4.000000,4.000000,4.000000,4.000000,4.000000,100.000000,,,,,,,,,,,,,,,,,,,,,,,,,,,,
1649268825.544974,1649268825.557985,26.000000,0.000000,4707.051270,4294.743652,4245.128418,4281.538574,4231.025879,4235.641113,4230.769043,4214.743652,4215.897461,4219.743652,4210.128418,4215.384766,4141.410156,4279.871582,0.000000,3.000000,55.000000,,,,0.000000,4.000000,4.000000,4.000000,4.000000,4.000000,4.000000,4.000000,4.000000,4.000000,4.000000,4.000000,4.000000,4.000000,4.000000,100.000000,,,,,,,,,,,,,,,,,,,,,,,,,,,,
1649268825.552796,1649268825.565710,27.000000,0.000000,4706.153809,4292.563965,4244.230957,4279.358887,4234.871582,4233.974121,4228.461426,4210.641113,4216.025879,4219.615234,4213.333496,4217.307617,4148.717773,4279.487305,0.000000,3.000000,55.000000,,,,0.000000,4.000000,4.000000,4.000000,4.000000,4.000000,4.000000,4.000000,4.000000,4.000000,4.000000,4.000000,4.000000,4.000000,4.000000,100.000000,,,,,,,,,,,,,,,,,,,,,,,,,,,,
1649268825.560619,1649268825.573536,28.000000,0.000000,4697.307617,4297.436035,4242.820313,4284.743652,4240.897461,4232.563965,4228.333496,4216.153809,4218.589844,4217.307617,4216.282227,4213.461426,4154.230957,4280.769043,0.000000,3.000000,55.000000,,,,0.000000,4.000000,4.000000,4.000000,4.000000,4.000000,4.000000,4.000000,4.000000,4.000000,4.000000,4.000000,4.000000,4.000000,4.000000,100.000000,,,,,,,,,,,,,,,,,7.000000,0.000000,0.132756,-0.653320,0.188232,-0.721191,0.890639,-0.449714,0.083986,-34.094757,-112.153809,-2.841230
1649268825.568440,1649268825.581262,29.000000,0.000000,4673.461426,4296.282227,4239.102539,4277.692383,4235.769043,4232.948730,4227.051270,4217.307617,4215.000000,4215.000000,4216.794922,4206.153809,4154.615234,4282.436035,0.000000,3.000000,55.000000,,,,0.000000,4.000000,4.000000,4.000000,4.000000,4.000000,4.000000,4.000000,4.000000,4.000000,4.000000,4.000000,4.000000,4.000000,4.000000,100.000000,,,,,,,,,,,,,,,,,,,,,,,,,,,,
1649268825.576262,1649268825.588987,30.000000,0.000000,4657.179688,4286.538574,4234.743652,4265.641113,4227.820313,4231.666504,4227.179688,4214.743652,4209.871582,4211.922852,4214.102539,4200.641113,4149.871582,4281.025879,0.000000,3.000000,55.000000,,,,0.000000,4.000000,4.000000,4.000000,4.000000,4.000000,4.000000,4.000000,4.000000,4.000000,4.000000,4.000000,4.000000,4.000000,4.000000,100.000000,,,,,,,,,,,,,,,,,,,,,,,,,,,,
1649268825.584084,1649268825.596813,31.000000,0.000000,4659.615234,4285.897461,4233.717773,4272.948730,4230.641113,4233.717773,4230.641113,4215.641113,4218.717773,4218.717773,4215.897461,4202.820313,4148.717773,4279.230957,0.000000,3.000000,55.000000,,,,0.000000,4.000000,4.000000,4.000000,4.000000,4.000000,4.000000,4.000000,4.000000,4.000000,4.000000,4.000000,4.000000,4.000000,4.000000,100.000000,,,,,,,,,,,,,,,,,,,,,,,,,,,,
