title:Eleccion2, start timestamp:1649282383.758155, stop timestamp:1649282401.926510, headset type:EPOCPLUS, headset serial:4A2C0467, headset firmware:633, channels:67, sampling rate:eeg_128;mot_32, samples:2324      , version:2.1, 
Timestamp,OriginalTimestamp,EEG.Counter,EEG.Interpolated,EEG.AF3,EEG.F7,EEG.F3,EEG.FC5,EEG.T7,EEG.P7,EEG.O1,EEG.O2,EEG.P8,EEG.T8,EEG.FC6,EEG.F4,EEG.F8,EEG.AF4,EEG.RawCq,EEG.Battery,EEG.BatteryPercent,MarkerIndex,MarkerType,MarkerValueInt,EEG.MarkerHardware,CQ.AF3,CQ.F7,CQ.F3,CQ.FC5,CQ.T7,CQ.P7,CQ.O1,CQ.O2,CQ.P8,CQ.T8,CQ.FC6,CQ.F4,CQ.F8,CQ.AF4,CQ.Overall,EQ.SampleRateQuality,EQ.OVERALL,EQ.AF3,EQ.F7,EQ.F3,EQ.FC5,EQ.T7,EQ.P7,EQ.O1,EQ.O2,EQ.P8,EQ.T8,EQ.FC6,EQ.F4,EQ.F8,EQ.AF4,MOT.CounterMems,MOT.InterpolatedMems,MOT.Q0,MOT.Q1,MOT.Q2,MOT.Q3,MOT.AccX,MOT.AccY,MOT.AccZ,MOT.MagX,MOT.MagY,MOT.MagZ
1649282383.758155,1649282383.783527,106.000000,0.000000,4240.128418,4291.538574,4248.333496,4279.358887,4244.615234,4247.051270,4346.538574,4248.846191,4246.025879,4240.128418,4225.769043,4241.410156,4205.641113,4225.384766,3629.000000,1.000000,15.000000,,,,0.000000,4.000000,4.000000,4.000000,4.000000,4.000000,2.000000,4.000000,4.000000,4.000000,4.000000,4.000000,4.000000,4.000000,4.000000,83.333336,,,,,,,,,,,,,,,,,,,,,,,,,,,,
1649282383.765976,1649282383.791253,107.000000,0.000000,4242.692383,4282.436035,4248.589844,4277.179688,4248.717773,4246.538574,4339.743652,4252.307617,4251.666504,4248.205078,4226.282227,4241.538574,4192.436035,4227.948730,3298.000000,1.000000,15.000000,,,,0.000000,4.000000,4.000000,4.000000,4.000000,4.000000,2.000000,4.000000,4.000000,4.000000,4.000000,4.000000,4.000000,4.000000,4.000000,83.333336,,,,,,,,,,,,,,,,,,,,,,,,,,,,
1649282383.773797,1649282383.799179,108.000000,0.000000,4243.333496,4276.282227,4253.205078,4274.871582,4253.846191,4248.846191,4345.128418,4267.692383,4265.897461,4247.436035,4235.128418,4247.436035,4201.922852,4234.358887,3555.000000,1.000000,15.000000,,,,0.000000,4.000000,4.000000,4.000000,4.000000,4.000000,2.000000,4.000000,4.000000,4.000000,4.000000,4.000000,4.000000,4.000000,4.000000,83.333336,,,,,,,,,,,,,,,,,27.000000,0.000000,0.408440,0.507690,-0.478638,0.588501,0.992691,-0.142580,0.026368,-30.954453,-99.143967,1.046769
1649282383.781618,1649282383.807004,109.000000,0.000000,4235.641113,4270.128418,4248.461426,4267.179688,4261.538574,4248.846191,4348.846191,4265.256348,4255.512695,4249.871582,4239.743652,4248.205078,4219.871582,4234.102539,3459.000000,1.000000,15.000000,,,,0.000000,4.000000,4.000000,4.000000,4.000000,4.000000,2.000000,4.000000,4.000000,4.000000,4.000000,4.000000,4.000000,4.000000,4.000000,83.333336,,,,,,,,,,,,,,,,,,,,,,,,,,,,
1649282383.789439,1649282383.814830,110.000000,0.000000,4228.846191,4263.589844,4241.025879,4257.692383,4260.641113,4245.641113,4340.641113,4258.846191,4242.051270,4260.897461,4240.256348,4244.743652,4217.563965,4232.436035,3629.000000,1.000000,15.000000,,,,0.000000,4.000000,4.000000,4.000000,4.000000,4.000000,2.000000,4.000000,4.000000,4.000000,4.000000,4.000000,4.000000,4.000000,4.000000,83.333336,,,,,,,,,,,,,,,,,,,,,,,,,,,,
1649282383.797260,1649282383.822556,111.000000,0.000000,4239.102539,4282.692383,4250.000000,4271.025879,4257.948730,4247.307617,4342.436035,4271.410156,4259.102539,4272.179688,4248.717773,4254.743652,4223.974121,4241.794922,3298.000000,1.000000,15.000000,,,,0.000000,4.000000,4.000000,4.000000,4.000000,4.000000,2.000000,4.000000,4.000000,4.000000,4.000000,4.000000,4.000000,4.000000,4.000000,83.333336,,,,,,,,,,,,,,,,,,,,,,,,,,,,
1649282383.805081,1649282383.830481,112.000000,0.000000,4255.384766,4310.000000,4261.922852,4293.333496,4244.102539,4251.153809,4347.307617,4260.000000,4260.384766,4263.461426,4254.871582,4267.436035,4234.743652,4254.358887,3555.000000,1.000000,15.000000,,,,0.000000,4.000000,4.000000,4.000000,4.000000,4.000000,2.000000,4.000000,4.000000,4.000000,4.000000,4.000000,4.000000,4.000000,4.000000,83.333336,,,,,,,,,,,,,,,,,28.000000,0.000000,0.407998,0.508240,-0.477905,0.588928,1.005386,-0.135744,0.022461,-30.356298,-98.545815,0.149538
1649282383.812902,1649282383.838307,113.000000,0.000000,4263.205078,4308.974121,4271.410156,4297.051270,4232.820313,4249.743652,4335.512695,4229.102539,4235.897461,4234.102539,4252.179688,4261.666504,4215.256348,4262.179688,3459.000000,1.000000,15.000000,,,,0.000000,4.000000,4.000000,4.000000,4.000000,4.000000,2.000000,4.000000,4.000000,4.000000,4.000000,4.000000,4.000000,4.000000,4.000000,83.333336,,,,,,,,,,,,,,,,,,,,,,,,,,,,
1649282383.820723,1649282383.846132,114.000000,0.000000,4267.948730,4303.333496,4278.205078,4298.333496,4252.051270,4246.538574,4322.692383,4228.077148,4235.641113,4226.282227,4246.922852,4252.436035,4206.282227,4267.436035,3629.000000,1.000000,15.000000,,,,0.000000,4.000000,4.000000,4.000000,4.000000,4.000000,2.000000,4.000000,4.000000,4.000000,4.000000,4.000000,4.000000,4.000000,4.000000,83.333336,,,,,,,,,,,,,,,,,,,,,,,,,,,,
1649282383.828544,1649282383.853858,115.000000,0.000000,4266.538574,4315.512695,4272.820313,4305.897461,4276.025879,4245.769043,4318.333496,4235.128418,4242.436035,4250.128418,4234.871582,4247.948730,4226.922852,4261.410156,3298.000000,1.000000,15.000000,,,,0.000000,4.000000,4.000000,4.000000,4.000000,4.000000,2.000000,4.000000,4.000000,4.000000,4.000000,4.000000,4.000000,4.000000,4.000000,83.333336,,,,,,,,,,,,,,,,,,,,,,,,,,,,
1649282383.836365,1649282383.861784,116.000000,0.000000,4261.922852,4314.871582,4267.820313,4301.025879,4272.692383,4247.307617,4322.051270,4225.256348,4227.820313,4262.692383,4224.615234,4243.717773,4227.307617,4251.025879,3555.000000,1.000000,15.000000,,,,0.000000,4.000000,4.000000,4.000000,4.000000,4.000000,2.000000,4.000000,4.000000,4.000000,4.000000,4.000000,4.000000,4.000000,4.000000,83.333336,,,,,,,,,,,,,,,,,29.000000,0.000000,0.407393,0.508850,-0.476868,0.589661,1.003433,-0.134768,0.027344,-29.907682,-100.041199,1.644923
1649282383.844186,1649282383.869609,117.000000,0.000000,4269.487305,4303.077148,4277.692383,4291.666504,4263.717773,4248.974121,4334.615234,4234.615234,4226.922852,4235.512695,4236.153809,4252.692383,4210.000000,4261.794922,3459.000000,1.000000,15.000000,,,,0.000000,4.000000,4.000000,4.000000,4.000000,4.000000,2.000000,4.000000,4.000000,4.000000,4.000000,4.000000,4.000000,4.000000,4.000000,83.333336,,,,,,,,,,,,,,,,,,,,,,,,,,,,
1649282383.852007,1649282383.877435,118.000000,0.000000,4278.077148,4312.563965,4285.641113,4300.641113,4266.666504,4247.692383,4336.025879,4250.384766,4238.717773,4209.615234,4253.717773,4268.846191,4212.436035,4278.974121,3629.000000,1.000000,15.000000,,,,0.000000,4.000000,4.000000,4.000000,4.000000,4.000000,2.000000,4.000000,4.000000,4.000000,4.000000,4.000000,4.000000,4.000000,4.000000,83.333336,,,,,,,,,,,,,,,,,,,,,,,,,,,,
1649282383.859828,1649282383.885160,119.000000,0.000000,4271.025879,4326.153809,4279.230957,4313.205078,4259.358887,4245.897461,4322.948730,4235.128418,4231.666504,4230.256348,4248.589844,4264.743652,4228.077148,4268.717773,3298.000000,1.000000,15.000000,,,,0.000000,4.000000,4.000000,4.000000,4.000000,4.000000,2.000000,4.000000,4.000000,4.000000,4.000000,4.000000,4.000000,4.000000,4.000000,83.333336,,,,,,,,,,,,,,,,,,,,,,,,,,,,
1649282383.867649,1649282383.893086,120.000000,0.000000,4250.769043,4299.102539,4263.717773,4292.948730,4258.077148,4245.256348,4319.871582,4224.358887,4229.102539,4256.666504,4231.025879,4247.051270,4228.461426,4247.307617,3555.000000,1.000000,15.000000,,,,0.000000,4.000000,4.000000,4.000000,4.000000,4.000000,2.000000,4.000000,4.000000,4.000000,4.000000,4.000000,4.000000,4.000000,4.000000,83.333336,,,,,,,,,,,,,,,,,30.000000,0.000000,0.406467,0.509644,-0.475525,0.590698,0.987808,-0.160647,0.031250,-29.758144,-99.742119,1.345846
1649282383.875471,1649282383.900912,121.000000,0.000000,4234.487305,4262.307617,4245.256348,4259.743652,4271.153809,4245.897461,4331.666504,4239.102539,4241.410156,4237.692383,4230.384766,4242.307617,4206.153809,4241.538574,3459.000000,1.000000,15.000000,,,,0.000000,4.000000,4.000000,4.000000,4.000000,4.000000,2.000000,4.000000,4.000000,4.000000,4.000000,4.000000,4.000000,4.000000,4.000000,83.333336,,,,,,,,,,,,,,,,,,,,,,,,,,,,
1649282383.883292,1649282383.908737,122.000000,0.000000,4236.794922,4280.256348,4244.871582,4266.538574,4258.717773,4247.820313,4341.922852,4251.538574,4252.436035,4229.743652,4239.358887,4248.077148,4195.641113,4245.128418,3629.000000,1.000000,15.000000,,,,0.000000,4.000000,4.000000,4.000000,4.000000,4.000000,2.000000,4.000000,4.000000,4.000000,4.000000,4.000000,4.000000,4.000000,4.000000,83.333336,,,,,,,,,,,,,,,,,,,,,,,,,,,,
1649282383.891113,1649282383.916463,123.000000,0.000000,4249.102539,4315.256348,4261.025879,4297.692383,4244.230957,4247.692383,4343.717773,4246.410156,4255.128418,4258.461426,4237.436035,4248.974121,4213.077148,4247.307617,3298.000000,1.000000,15.000000,,,,0.000000,4.000000,4.000000,4.000000,4.000000,4.000000,2.000000,4.000000,4.000000,4.000000,4.000000,4.000000,4.000000,4.000000,4.000000,83.333336,,,,,,,,,,,,,,,,,,,,,,,,,,,,
1649282383.898934,1649282383.924388,124.000000,0.000000,4250.769043,4301.794922,4264.743652,4296.794922,4260.000000,4245.769043,4341.025879,4237.820313,4238.205078,4256.538574,4232.436035,4246.922852,4219.102539,4247.820313,3555.000000,1.000000,15.000000,,,,0.000000,4.000000,4.000000,4.000000,4.000000,4.000000,2.000000,4.000000,4.000000,4.000000,4.000000,4.000000,4.000000,4.000000,4.000000,83.333336,,,,,,,,,,,,,,,,,31.000000,0.000000,0.405517,0.510376,-0.473877,0.592041,1.006363,-0.155276,0.032715,-30.206760,-99.143967,2.542153
1649282383.906755,1649282383.932314,125.000000,0.000000,4247.307617,4292.179688,4259.615234,4287.820313,4272.948730,4246.153809,4339.487305,4231.922852,4219.743652,4243.461426,4231.538574,4248.717773,4214.871582,4247.563965,3459.000000,1.000000,15.000000,,,,0.000000,4.000000,4.000000,4.000000,4.000000,4.000000,2.000000,4.000000,4.000000,4.000000,4.000000,4.000000,4.000000,4.000000,4.000000,83.333336,,,,,,,,,,,,,,,,,,,,,,,,,,,,
1649282383.914576,1649282383.940140,126.000000,0.000000,4255.641113,4312.051270,4263.333496,4298.589844,4262.820313,4247.051270,4336.025879,4226.538574,4223.846191,4252.692383,4232.692383,4250.000000,4222.307617,4248.589844,3629.000000,1.000000,15.000000,,,,0.000000,4.000000,4.000000,4.000000,4.000000,4.000000,2.000000,4.000000,4.000000,4.000000,4.000000,4.000000,4.000000,4.000000,4.000000,83.333336,,,,,,,,,,,,,,,,,,,,,,,,,,,,
1649282383.922397,1649282383.947965,127.000000,0.000000,4261.025879,4294.871582,4265.128418,4290.000000,4264.487305,4246.153809,4332.563965,4228.717773,4231.922852,4236.794922,4231.666504,4245.384766,4211.025879,4255.384766,52.000000,1.000000,15.000000,,,,0.000000,4.000000,4.000000,4.000000,4.000000,4.000000,2.000000,4.000000,4.000000,4.000000,4.000000,4.000000,4.000000,4.000000,4.000000,83.333336,,,,,,,,,,,,,,,,,,,,,,,,,,,,
1649282383.930218,1649282383.955691,0.000000,0.000000,4261.025879,4275.000000,4266.153809,4278.846191,4267.948730,4247.436035,4344.871582,4245.128418,4239.871582,4222.948730,4232.179688,4251.538574,4202.563965,4261.922852,3574.000000,1.000000,15.000000,,,,0.000000,4.000000,4.000000,4.000000,4.000000,4.000000,2.000000,4.000000,4.000000,4.000000,4.000000,4.000000,4.000000,4.000000,4.000000,83.333336,,,,,,,,,,,,,,,,,0.000000,0.000000,0.404560,0.511230,-0.472168,0.593323,1.017594,-0.141604,0.043458,-30.356298,-98.097198,1.196307
1649282383.938039,1649282383.963616,1.000000,0.000000,4264.487305,4305.384766,4273.846191,4294.230957,4251.538574,4249.871582,4352.436035,4250.128418,4247.307617,4244.487305,4236.666504,4262.179688,4226.666504,4261.153809,3544.000000,1.000000,15.000000,,,,0.000000,4.000000,4.000000,4.000000,4.000000,4.000000,2.000000,4.000000,4.000000,4.000000,4.000000,4.000000,4.000000,4.000000,4.000000,83.333336,,,,,,,,,,,,,,,,,,,,,,,,,,,,
1649282383.945860,1649282383.971442,2.000000,0.000000,4260.128418,4313.333496,4271.538574,4295.128418,4250.641113,4248.205078,4331.153809,4234.871582,4235.000000,4243.717773,4239.358887,4255.000000,4241.538574,4258.974121,3582.000000,1.000000,15.000000,,,,0.000000,4.000000,4.000000,4.000000,4.000000,4.000000,2.000000,4.000000,4.000000,4.000000,4.000000,4.000000,4.000000,4.000000,4.000000,83.333336,,,,,,,,,,,,,,,,,,,,,,,,,,,,
1649282383.953681,1649282383.979268,3.000000,0.000000,4246.410156,4276.538574,4257.307617,4274.615234,4261.153809,4245.000000,4312.948730,4235.128418,4227.948730,4229.487305,4237.692383,4246.025879,4232.436035,4257.820313,3573.000000,1.000000,15.000000,,,,0.000000,4.000000,4.000000,4.000000,4.000000,4.000000,2.000000,4.000000,4.000000,4.000000,4.000000,4.000000,4.000000,4.000000,4.000000,83.333336,,,,,,,,,,,,,,,,,,,,,,,,,,,,
1649282383.961502,1649282383.986993,4.000000,0.000000,4246.282227,4271.922852,4258.589844,4272.820313,4261.666504,4245.512695,4321.153809,4253.461426,4250.897461,4252.563965,4245.512695,4260.384766,4232.436035,4260.897461,3615.000000,1.000000,15.000000,,,,0.000000,4.000000,4.000000,4.000000,4.000000,4.000000,2.000000,4.000000,4.000000,4.000000,4.000000,4.000000,4.000000,4.000000,4.000000,83.333336,,,,,,,,,,,,,,,,,1.000000,0.000000,0.404080,0.511719,-0.471436,0.593811,1.010758,-0.168948,0.034668,-31.851683,-98.844894,0.897231
1649282383.969324,1649282383.994919,5.000000,0.000000,4260.000000,4297.436035,4269.102539,4283.717773,4266.922852,4247.948730,4327.563965,4258.333496,4253.974121,4274.358887,4257.948730,4275.128418,4236.410156,4268.077148,783.000000,1.000000,15.000000,,,,0.000000,4.000000,4.000000,4.000000,4.000000,4.000000,2.000000,4.000000,4.000000,4.000000,4.000000,4.000000,4.000000,4.000000,4.000000,83.333336,,,,,,,,,,,,,,,,,,,,,,,,,,,,
1649282383.977145,1649282384.002744,6.000000,0.000000,4262.820313,4297.820313,4264.487305,4280.897461,4271.153809,4247.179688,4315.384766,4251.922852,4234.102539,4261.922852,4252.563965,4266.666504,4233.717773,4268.333496,3640.000000,1.000000,15.000000,,,,0.000000,4.000000,4.000000,4.000000,4.000000,4.000000,2.000000,4.000000,4.000000,4.000000,4.000000,4.000000,4.000000,4.000000,4.000000,83.333336,,,,,,,,,,,,,,,,,,,,,,,,,,,,
1649282383.984966,1649282384.010570,7.000000,0.000000,4259.102539,4283.717773,4264.102539,4278.717773,4266.153809,4245.384766,4306.666504,4244.102539,4241.794922,4251.922852,4242.051270,4257.948730,4239.230957,4262.692383,3592.000000,1.000000,15.000000,,,,0.000000,4.000000,4.000000,4.000000,4.000000,4.000000,2.000000,4.000000,4.000000,4.000000,4.000000,4.000000,4.000000,4.000000,4.000000,83.333336,1.000000,50.000000,4.000000,4.000000,4.000000,4.000000,4.000000,1.000000,4.000000,4.000000,4.000000,1.000000,4.000000,4.000000,4.000000,4.000000,,,,,,,,,,,,
1649282383.992787,1649282384.018296,8.000000,0.000000,4262.051270,4288.333496,4274.743652,4287.051270,4259.487305,4245.256348,4308.589844,4235.000000,4248.846191,4250.641113,4241.153809,4259.743652,4244.102539,4266.410156,3542.000000,1.000000,15.000000,,,,0.000000,4.000000,4.000000,4.000000,4.000000,4.000000,2.000000,4.000000,4.000000,4.000000,4.000000,4.000000,4.000000,4.000000,4.000000,83.333336,,,,,,,,,,,,,,,,,2.000000,0.000000,0.403580,0.512695,-0.470032,0.594421,1.009293,-0.156741,0.044434,-29.907682,-98.844894,0.448615
1649282384.000608,1649282384.026221,9.000000,0.000000,4265.256348,4310.897461,4272.436035,4298.589844,4249.743652,4247.051270,4310.512695,4232.692383,4225.384766,4233.846191,4239.230957,4256.153809,4240.128418,4267.051270,3645.000000,1.000000,15.000000,,,,0.000000,4.000000,4.000000,4.000000,4.000000,4.000000,2.000000,4.000000,4.000000,4.000000,4.000000,4.000000,4.000000,4.000000,4.000000,83.333336,,,,,,,,,,,,,,,,,,,,,,,,,,,,
1649282384.008429,1649282384.034047,10.000000,0.000000,4258.333496,4301.282227,4259.871582,4287.820313,4245.512695,4247.051270,4311.410156,4230.128418,4211.282227,4213.205078,4231.025879,4246.153809,4220.512695,4251.025879,3629.000000,1.000000,15.000000,,,,0.000000,4.000000,4.000000,4.000000,4.000000,4.000000,2.000000,4.000000,4.000000,4.000000,4.000000,4.000000,4.000000,4.000000,4.000000,83.333336,,,,,,,,,,,,,,,,,,,,,,,,,,,,
1649282384.016250,1649282384.041873,11.000000,0.000000,4247.692383,4267.051270,4260.256348,4262.692383,4250.256348,4241.922852,4311.410156,4220.384766,4211.666504,4221.922852,4232.563965,4244.230957,4200.512695,4244.871582,3302.000000,1.000000,15.000000,,,,0.000000,4.000000,4.000000,4.000000,4.000000,4.000000,2.000000,4.000000,4.000000,4.000000,4.000000,4.000000,4.000000,4.000000,4.000000,83.333336,,,,,,,,,,,,,,,,,,,,,,,,,,,,
1649282384.024071,1649282384.049598,12.000000,0.000000,4250.000000,4271.794922,4266.922852,4268.461426,4246.538574,4240.769043,4308.205078,4210.769043,4203.717773,4251.922852,4235.384766,4246.153809,4210.000000,4254.230957,3551.000000,1.000000,15.000000,,,,0.000000,4.000000,4.000000,4.000000,4.000000,4.000000,2.000000,4.000000,4.000000,4.000000,4.000000,4.000000,4.000000,4.000000,4.000000,83.333336,,,,,,,,,,,,,,,,,3.000000,0.000000,0.403187,0.513489,-0.469116,0.594727,0.996597,-0.154788,0.030762,-29.907682,-100.340279,0.448615
1649282384.031892,1649282384.057524,13.000000,0.000000,4252.307617,4283.205078,4258.589844,4277.436035,4244.102539,4246.153809,4312.051270,4205.769043,4199.615234,4240.384766,4222.179688,4237.820313,4217.820313,4252.563965,3462.000000,1.000000,15.000000,,,,0.000000,4.000000,4.000000,4.000000,4.000000,4.000000,2.000000,4.000000,4.000000,4.000000,4.000000,4.000000,4.000000,4.000000,4.000000,83.333336,,,,,,,,,,,,,,,,,,,,,,,,,,,,
1649282384.039713,1649282384.065349,14.000000,0.000000,4237.948730,4260.641113,4243.717773,4257.948730,4251.794922,4248.077148,4313.077148,4198.846191,4198.589844,4189.358887,4212.051270,4228.846191,4196.666504,4241.794922,3629.000000,1.000000,15.000000,,,,0.000000,4.000000,4.000000,4.000000,4.000000,4.000000,2.000000,4.000000,4.000000,4.000000,4.000000,4.000000,4.000000,4.000000,4.000000,83.333336,,,,,,,,,,,,,,,,,,,,,,,,,,,,
1649282384.047534,1649282384.073175,15.000000,0.000000,4228.461426,4257.563965,4243.717773,4250.128418,4249.743652,4245.128418,4294.871582,4195.769043,4197.692383,4189.102539,4217.563965,4229.230957,4195.256348,4241.794922,3302.000000,1.000000,15.000000,,,,0.000000,4.000000,4.000000,4.000000,4.000000,4.000000,2.000000,4.000000,4.000000,4.000000,4.000000,4.000000,4.000000,4.000000,4.000000,83.333336,,,,,,,,,,,,,,,,,,,,,,,,,,,,
1649282384.055355,1649282384.081001,16.000000,0.000000,4244.358887,4283.846191,4257.051270,4266.282227,4243.205078,4245.769043,4280.897461,4220.128418,4222.307617,4246.538574,4225.641113,4236.794922,4226.153809,4250.897461,0.000000,1.000000,15.000000,,,,0.000000,4.000000,4.000000,4.000000,4.000000,4.000000,2.000000,4.000000,4.000000,4.000000,4.000000,4.000000,4.000000,4.000000,4.000000,83.333336,,,,,,,,,,,,,,,,,4.000000,0.000000,0.402990,0.513977,-0.468750,0.594727,0.990738,-0.152346,0.035645,-30.505836,-99.443047,1.046769
1649282384.063176,1649282384.088826,17.000000,0.000000,4253.333496,4281.025879,4259.871582,4271.025879,4247.692383,4247.692383,4279.230957,4241.538574,4240.256348,4258.846191,4222.692383,4237.436035,4235.897461,4247.051270,0.000000,1.000000,15.000000,,,,0.000000,4.000000,4.000000,4.000000,4.000000,4.000000,2.000000,4.000000,4.000000,4.000000,4.000000,4.000000,4.000000,4.000000,4.000000,83.333336,,,,,,,,,,,,,,,,,,,,,,,,,,,,
1649282384.070997,1649282384.096652,18.000000,0.000000,4237.307617,4251.922852,4248.077148,4257.051270,4252.179688,4246.153809,4280.897461,4224.871582,4212.820313,4204.743652,4214.358887,4223.205078,4198.589844,4230.512695,0.000000,1.000000,15.000000,,,,0.000000,4.000000,4.000000,4.000000,4.000000,4.000000,2.000000,4.000000,4.000000,4.000000,4.000000,4.000000,4.000000,4.000000,4.000000,83.333336,,,,,,,,,,,,,,,,,,,,,,,,,,,,
1649282384.078818,1649282384.104577,19.000000,0.000000,4225.512695,4242.051270,4240.769043,4244.615234,4243.333496,4245.512695,4290.000000,4213.205078,4196.794922,4184.487305,4210.512695,4211.794922,4161.666504,4223.846191,0.000000,1.000000,15.000000,,,,0.000000,4.000000,4.000000,4.000000,4.000000,4.000000,2.000000,4.000000,4.000000,4.000000,4.000000,4.000000,4.000000,4.000000,4.000000,83.333336,,,,,,,,,,,,,,,,,,,,,,,,,,,,
1649282384.086640,1649282384.112403,20.000000,0.000000,4231.282227,4261.410156,4241.025879,4250.000000,4231.025879,4246.794922,4290.769043,4233.461426,4220.000000,4225.128418,4213.077148,4215.384766,4184.358887,4227.436035,0.000000,1.000000,15.000000,,,,0.000000,4.000000,4.000000,4.000000,4.000000,4.000000,2.000000,4.000000,4.000000,4.000000,4.000000,4.000000,4.000000,4.000000,4.000000,83.333336,,,,,,,,,,,,,,,,,5.000000,0.000000,0.402859,0.514221,-0.468750,0.594604,0.998550,-0.138674,0.041016,-30.356298,-99.592583,1.196307
1649282384.094461,1649282384.120328,21.000000,0.000000,4232.948730,4270.641113,4238.589844,4258.974121,4239.615234,4247.307617,4269.230957,4241.538574,4223.205078,4240.256348,4215.512695,4216.794922,4225.256348,4222.436035,0.000000,1.000000,15.000000,,,,0.000000,4.000000,4.000000,4.000000,4.000000,4.000000,2.000000,4.000000,4.000000,4.000000,4.000000,4.000000,4.000000,4.000000,4.000000,83.333336,,,,,,,,,,,,,,,,,,,,,,,,,,,,
1649282384.102282,1649282384.128154,22.000000,0.000000,4224.871582,4256.025879,4237.051270,4251.794922,4264.102539,4246.410156,4256.025879,4225.000000,4207.563965,4214.102539,4213.717773,4210.384766,4217.692383,4216.538574,0.000000,1.000000,15.000000,,,,0.000000,4.000000,4.000000,4.000000,4.000000,4.000000,2.000000,4.000000,4.000000,4.000000,4.000000,4.000000,4.000000,4.000000,4.000000,83.333336,,,,,,,,,,,,,,,,,,,,,,,,,,,,
1649282384.110103,1649282384.135980,23.000000,0.000000,4232.820313,4268.717773,4245.897461,4256.666504,4265.641113,4246.025879,4265.256348,4229.102539,4221.922852,4217.692383,4220.897461,4218.333496,4202.563965,4231.153809,0.000000,1.000000,15.000000,,,,0.000000,4.000000,4.000000,4.000000,4.000000,4.000000,2.000000,4.000000,4.000000,4.000000,4.000000,4.000000,4.000000,4.000000,4.000000,83.333336,,,,,,,,,,,,,,,,,,,,,,,,,,,,
1649282384.117924,1649282384.143705,24.000000,0.000000,4249.871582,4288.077148,4256.153809,4271.410156,4248.077148,4246.922852,4260.769043,4243.846191,4244.615234,4239.358887,4235.897461,4236.410156,4216.538574,4250.384766,0.000000,1.000000,15.000000,,,,0.000000,4.000000,4.000000,4.000000,4.000000,4.000000,2.000000,4.000000,4.000000,4.000000,4.000000,4.000000,4.000000,4.000000,4.000000,83.333336,,,,,,,,,,,,,,,,,6.000000,0.000000,0.402721,0.514526,-0.468689,0.594482,0.999039,-0.140139,0.032227,-29.010452,-99.742119,1.046769
1649282384.125745,1649282384.151431,25.000000,0.000000,4241.538574,4258.333496,4249.230957,4252.692383,4247.307617,4246.410156,4232.563965,4232.820313,4232.820313,4233.717773,4234.615234,4235.641113,4219.615234,4243.077148,0.000000,1.000000,15.000000,,,,0.000000,4.000000,4.000000,4.000000,4.000000,4.000000,2.000000,4.000000,4.000000,4.000000,4.000000,4.000000,4.000000,4.000000,4.000000,83.333336,,,,,,,,,,,,,,,,,,,,,,,,,,,,
1649282384.133566,1649282384.159257,26.000000,0.000000,4226.794922,4242.436035,4235.128418,4238.846191,4248.974121,4245.256348,4217.436035,4216.025879,4218.205078,4228.077148,4222.692383,4224.615234,4213.077148,4224.358887,0.000000,1.000000,15.000000,,,,0.000000,4.000000,4.000000,4.000000,4.000000,4.000000,2.000000,4.000000,4.000000,4.000000,4.000000,4.000000,4.000000,4.000000,4.000000,83.333336,,,,,,,,,,,,,,,,,,,,,,,,,,,,
1649282384.141387,1649282384.167082,27.000000,0.000000,4239.487305,4267.948730,4246.282227,4262.692383,4233.205078,4245.512695,4231.666504,4230.897461,4236.410156,4234.615234,4238.077148,4235.769043,4218.846191,4234.230957,0.000000,1.000000,15.000000,,,,0.000000,4.000000,4.000000,4.000000,4.000000,4.000000,2.000000,4.000000,4.000000,4.000000,4.000000,4.000000,4.000000,4.000000,4.000000,83.333336,,,,,,,,,,,,,,,,,,,,,,,,,,,,
1649282384.149208,1649282384.174908,28.000000,0.000000,4253.974121,4273.974121,4263.333496,4269.615234,4226.153809,4244.358887,4237.051270,4248.205078,4252.179688,4235.897461,4255.384766,4253.333496,4223.077148,4250.256348,0.000000,1.000000,15.000000,,,,0.000000,4.000000,4.000000,4.000000,4.000000,4.000000,2.000000,4.000000,4.000000,4.000000,4.000000,4.000000,4.000000,4.000000,4.000000,83.333336,,,,,,,,,,,,,,,,,7.000000,0.000000,0.402474,0.514648,-0.468689,0.594543,0.984390,-0.132326,0.046876,-30.505836,-100.190735,0.299077
1649282384.157029,1649282384.182734,29.000000,0.000000,4247.051270,4259.358887,4254.743652,4253.846191,4245.256348,4242.563965,4217.179688,4232.436035,4231.153809,4239.487305,4236.666504,4242.436035,4223.589844,4241.538574,0.000000,1.000000,15.000000,,,,0.000000,4.000000,4.000000,4.000000,4.000000,4.000000,2.000000,4.000000,4.000000,4.000000,4.000000,4.000000,4.000000,4.000000,4.000000,83.333336,,,,,,,,,,,,,,,,,,,,,,,,,,,,
1649282384.164850,1649282384.190559,30.000000,0.000000,4244.230957,4251.282227,4248.461426,4252.051270,4260.256348,4243.846191,4218.846191,4231.282227,4214.615234,4238.974121,4221.922852,4231.282227,4201.153809,4236.794922,0.000000,1.000000,15.000000,,,,0.000000,4.000000,4.000000,4.000000,4.000000,4.000000,2.000000,4.000000,4.000000,4.000000,4.000000,4.000000,4.000000,4.000000,4.000000,83.333336,,,,,,,,,,,,,,,,,,,,,,,,,,,,
1649282384.172671,1649282384.198285,31.000000,0.000000,4253.717773,4257.179688,4262.948730,4259.102539,4261.794922,4247.051270,4238.333496,4253.589844,4233.589844,4229.615234,4241.410156,4245.641113,4184.358887,4249.487305,0.000000,1.000000,15.000000,,,,0.000000,4.000000,4.000000,4.000000,4.000000,4.000000,2.000000,4.000000,4.000000,4.000000,4.000000,4.000000,4.000000,4.000000,4.000000,83.333336,,,,,,,,,,,,,,,,,,,,,,,,,,,,
1649282384.180493,1649282384.206210,32.000000,0.000000,4250.000000,4275.769043,4262.563965,4265.000000,4265.128418,4246.153809,4230.000000,4244.358887,4248.974121,4235.000000,4254.230957,4249.358887,4219.358887,4250.384766,0.000000,1.000000,15.000000,,,,0.000000,4.000000,4.000000,4.000000,4.000000,4.000000,2.000000,4.000000,4.000000,4.000000,4.000000,4.000000,4.000000,4.000000,4.000000,83.333336,,,,,,,,,,,,,,,,,8.000000,0.000000,0.402121,0.514587,-0.468750,0.594788,0.995132,-0.138674,0.038575,-30.804913,-98.545815,1.196307
1649282384.188314,1649282384.214036,33.000000,0.000000,4235.897461,4275.384766,4245.897461,4263.717773,4257.051270,4243.461426,4210.000000,4218.589844,4243.974121,4246.922852,4241.666504,4231.666504,4255.897461,4240.000000,0.000000,1.000000,15.000000,,,,0.000000,4.000000,4.000000,4.000000,4.000000,4.000000,2.000000,4.000000,4.000000,4.000000,4.000000,4.000000,4.000000,4.000000,4.000000,83.333336,,,,,,,,,,,,,,,,,,,,,,,,,,,,
1649282384.196135,1649282384.221862,34.000000,0.000000,4238.077148,4250.769043,4246.153809,4252.563965,4245.769043,4243.974121,4214.102539,4228.461426,4244.102539,4244.615234,4248.077148,4228.333496,4253.205078,4242.692383,0.000000,1.000000,15.000000,,,,0.000000,4.000000,4.000000,4.000000,4.000000,4.000000,2.000000,4.000000,4.000000,4.000000,4.000000,4.000000,4.000000,4.000000,4.000000,83.333336,,,,,,,,,,,,,,,,,,,,,,,,,,,,
1649282384.203956,1649282384.229587,35.000000,0.000000,4247.179688,4244.358887,4251.794922,4248.205078,4245.641113,4244.615234,4230.384766,4254.230957,4250.512695,4251.282227,4269.102539,4240.256348,4238.846191,4251.794922,0.000000,1.000000,15.000000,,,,0.000000,4.000000,4.000000,4.000000,4.000000,4.000000,2.000000,4.000000,4.000000,4.000000,4.000000,4.000000,4.000000,4.000000,4.000000,83.333336,,,,,,,,,,,,,,,,,,,,,,,,,,,,
1649282384.211777,1649282384.237513,36.000000,0.000000,4234.230957,4247.563965,4240.641113,4247.307617,4248.077148,4244.487305,4231.538574,4248.974121,4252.436035,4262.948730,4255.384766,4232.307617,4234.871582,4239.743652,0.000000,1.000000,15.000000,,,,0.000000,4.000000,4.000000,4.000000,4.000000,4.000000,2.000000,4.000000,4.000000,4.000000,4.000000,4.000000,4.000000,4.000000,4.000000,83.333336,,,,,,,,,,,,,,,,,9.000000,0.000000,0.401545,0.514587,-0.468933,0.595032,1.000992,-0.135744,0.027344,-30.206760,-99.443047,1.345846
1649282384.219598,1649282384.245438,37.000000,0.000000,4210.256348,4233.333496,4222.307617,4231.410156,4255.256348,4244.743652,4217.820313,4230.256348,4248.717773,4249.615234,4222.307617,4210.128418,4235.128418,4213.205078,0.000000,1.000000,15.000000,,,,0.000000,4.000000,4.000000,4.000000,4.000000,4.000000,2.000000,4.000000,4.000000,4.000000,4.000000,4.000000,4.000000,4.000000,4.000000,83.333336,,,,,,,,,,,,,,,,,,,,,,,,,,,,
1649282384.227419,1649282384.253264,38.000000,0.000000,4213.077148,4232.692383,4222.820313,4228.461426,4265.256348,4243.589844,4213.333496,4236.153809,4245.384766,4252.948730,4227.307617,4216.410156,4242.179688,4216.538574,0.000000,1.000000,15.000000,,,,0.000000,4.000000,4.000000,4.000000,4.000000,4.000000,2.000000,4.000000,4.000000,4.000000,4.000000,4.000000,4.000000,4.000000,4.000000,83.333336,,,,,,,,,,,,,,,,,,,,,,,,,,,,
1649282384.235240,1649282384.261090,39.000000,0.000000,4231.153809,4240.769043,4239.615234,4241.666504,4254.743652,4241.538574,4223.846191,4249.487305,4250.769043,4271.538574,4254.487305,4239.230957,4242.307617,4243.717773,0.000000,1.000000,15.000000,,,,0.000000,4.000000,4.000000,4.000000,4.000000,4.000000,2.000000,4.000000,4.000000,4.000000,4.000000,4.000000,4.000000,4.000000,4.000000,83.333336,,,,,,,,,,,,,,,,,,,,,,,,,,,,
1649282384.243061,1649282384.269015,40.000000,0.000000,4233.717773,4230.897461,4247.436035,4241.666504,4233.461426,4243.205078,4222.820313,4239.615234,4246.410156,4239.487305,4262.307617,4240.128418,4230.512695,4245.769043,0.000000,1.000000,15.000000,,,,0.000000,4.000000,4.000000,4.000000,4.000000,4.000000,2.000000,4.000000,4.000000,4.000000,4.000000,4.000000,4.000000,4.000000,4.000000,83.333336,,,,,,,,,,,,,,,,,10.000000,0.000000,0.401190,0.514526,-0.468994,0.595276,1.000015,-0.129885,0.030762,-29.907682,-99.592583,-0.149538
1649282384.250882,1649282384.276941,41.000000,0.000000,4236.410156,4238.717773,4249.358887,4243.205078,4238.461426,4246.282227,4218.333496,4235.128418,4236.666504,4221.794922,4262.051270,4236.794922,4236.410156,4240.000000,0.000000,1.000000,15.000000,,,,0.000000,4.000000,4.000000,4.000000,4.000000,4.000000,2.000000,4.000000,4.000000,4.000000,4.000000,4.000000,4.000000,4.000000,4.000000,83.333336,,,,,,,,,,,,,,,,,,,,,,,,,,,,
1649282384.258703,1649282384.284766,42.000000,0.000000,4242.436035,4263.974121,4248.589844,4252.563965,4256.153809,4243.717773,4227.307617,4246.282227,4243.077148,4268.846191,4254.102539,4242.307617,4254.102539,4243.846191,0.000000,1.000000,15.000000,,,,0.000000,4.000000,4.000000,4.000000,4.000000,4.000000,2.000000,4.000000,4.000000,4.000000,4.000000,4.000000,4.000000,4.000000,4.000000,83.333336,,,,,,,,,,,,,,,,,,,,,,,,,,,,
1649282384.266524,1649282384.292592,43.000000,0.000000,4236.153809,4255.128418,4239.102539,4251.025879,4262.820313,4240.769043,4225.641113,4235.256348,4240.897461,4280.384766,4235.256348,4233.846191,4253.589844,4239.230957,0.000000,1.000000,15.000000,,,,0.000000,4.000000,4.000000,4.000000,4.000000,4.000000,2.000000,4.000000,4.000000,4.000000,4.000000,4.000000,4.000000,4.000000,4.000000,83.333336,,,,,,,,,,,,,,,,,,,,,,,,,,,,
1649282384.274345,1649282384.300517,44.000000,0.000000,4228.461426,4233.333496,4236.025879,4244.487305,4261.025879,4244.102539,4216.666504,4222.179688,4231.666504,4247.820313,4231.410156,4223.333496,4232.051270,4236.922852,0.000000,1.000000,15.000000,,,,0.000000,4.000000,4.000000,4.000000,4.000000,4.000000,2.000000,4.000000,4.000000,4.000000,4.000000,4.000000,4.000000,4.000000,4.000000,83.333336,,,,,,,,,,,,,,,,,11.000000,0.000000,0.400530,0.514465,-0.469238,0.595581,0.991714,-0.140139,0.030762,-30.954453,-98.695351,1.345846
1649282384.282166,1649282384.308443,45.000000,0.000000,4236.666504,4245.384766,4247.820313,4248.077148,4253.461426,4248.077148,4220.897461,4238.077148,4241.922852,4234.743652,4247.436035,4229.871582,4226.025879,4247.692383,0.000000,1.000000,15.000000,,,,0.000000,4.000000,4.000000,4.000000,4.000000,4.000000,2.000000,4.000000,4.000000,4.000000,4.000000,4.000000,4.000000,4.000000,4.000000,83.333336,,,,,,,,,,,,,,,,,,,,,,,,,,,,
1649282384.289987,1649282384.316268,46.000000,0.000000,4245.769043,4266.922852,4251.410156,4259.615234,4247.051270,4246.282227,4223.333496,4249.871582,4246.282227,4227.820313,4258.717773,4235.000000,4245.512695,4248.717773,0.000000,1.000000,15.000000,,,,0.000000,4.000000,4.000000,4.000000,4.000000,4.000000,2.000000,4.000000,4.000000,4.000000,4.000000,4.000000,4.000000,4.000000,4.000000,83.333336,,,,,,,,,,,,,,,,,,,,,,,,,,,,
1649282384.297809,1649282384.324094,47.000000,0.000000,4241.025879,4261.538574,4243.461426,4263.333496,4252.436035,4244.743652,4217.948730,4244.102539,4234.871582,4238.717773,4255.512695,4232.948730,4251.666504,4242.820313,0.000000,1.000000,15.000000,,,,0.000000,4.000000,4.000000,4.000000,4.000000,4.000000,2.000000,4.000000,4.000000,4.000000,4.000000,4.000000,4.000000,4.000000,4.000000,83.333336,,,,,,,,,,,,,,,,,,,,,,,,,,,,
1649282384.305630,1649282384.331820,48.000000,0.000000,4236.666504,4249.743652,4248.077148,4255.897461,4263.077148,4247.563965,4214.358887,4248.205078,4245.897461,4281.153809,4249.487305,4235.897461,4245.769043,4250.256348,0.000000,1.000000,15.000000,,,,0.000000,4.000000,4.000000,4.000000,4.000000,4.000000,2.000000,4.000000,4.000000,4.000000,4.000000,4.000000,4.000000,4.000000,4.000000,83.333336,,,,,,,,,,,,,,,,,12.000000,0.000000,0.399724,0.514404,-0.469604,0.595886,1.010758,-0.139651,0.026856,-29.907682,-99.293510,3.439384
1649282384.313451,1649282384.339745,49.000000,0.000000,4235.769043,4250.897461,4247.436035,4250.384766,4265.641113,4248.205078,4204.102539,4254.358887,4253.974121,4283.717773,4246.025879,4236.282227,4246.538574,4249.230957,0.000000,1.000000,15.000000,,,,0.000000,4.000000,4.000000,4.000000,4.000000,4.000000,2.000000,4.000000,4.000000,4.000000,4.000000,4.000000,4.000000,4.000000,4.000000,83.333336,,,,,,,,,,,,,,,,,,,,,,,,,,,,
1649282384.321272,1649282384.347571,50.000000,0.000000,4231.282227,4249.871582,4236.153809,4250.384766,4261.666504,4246.025879,4195.000000,4244.487305,4239.230957,4244.102539,4246.922852,4230.512695,4246.025879,4233.461426,0.000000,1.000000,15.000000,,,,0.000000,4.000000,4.000000,4.000000,4.000000,4.000000,2.000000,4.000000,4.000000,4.000000,4.000000,4.000000,4.000000,4.000000,4.000000,83.333336,,,,,,,,,,,,,,,,,,,,,,,,,,,,
1649282384.329093,1649282384.355397,51.000000,0.000000,4227.948730,4233.077148,4235.256348,4242.692383,4253.974121,4245.384766,4198.461426,4233.717773,4235.512695,4234.102539,4243.717773,4228.846191,4231.538574,4226.538574,0.000000,1.000000,15.000000,,,,0.000000,4.000000,4.000000,4.000000,4.000000,4.000000,2.000000,4.000000,4.000000,4.000000,4.000000,4.000000,4.000000,4.000000,4.000000,83.333336,,,,,,,,,,,,,,,,,,,,,,,,,,,,
1649282384.336914,1649282384.363122,52.000000,0.000000,4238.846191,4231.538574,4249.102539,4242.692383,4245.256348,4246.410156,4201.282227,4245.769043,4245.256348,4255.897461,4243.717773,4239.102539,4227.820313,4237.436035,0.000000,1.000000,15.000000,,,,0.000000,4.000000,4.000000,4.000000,4.000000,4.000000,2.000000,4.000000,4.000000,4.000000,4.000000,4.000000,4.000000,4.000000,4.000000,83.333336,,,,,,,,,,,,,,,,,13.000000,0.000000,0.399080,0.514343,-0.469910,0.596130,1.001480,-0.162112,0.029297,-31.103991,-98.545815,0.448615
1649282384.344735,1649282384.371048,53.000000,0.000000,4252.051270,4253.205078,4260.384766,4256.794922,4246.282227,4246.666504,4205.128418,4268.205078,4255.384766,4268.077148,4259.871582,4251.666504,4241.794922,4258.205078,0.000000,1.000000,15.000000,,,,0.000000,4.000000,4.000000,4.000000,4.000000,4.000000,2.000000,4.000000,4.000000,4.000000,4.000000,4.000000,4.000000,4.000000,4.000000,83.333336,,,,,,,,,,,,,,,,,,,,,,,,,,,,
1649282384.352556,1649282384.378873,54.000000,0.000000,4248.461426,4249.871582,4255.256348,4251.410156,4250.769043,4245.000000,4212.948730,4268.461426,4258.205078,4248.846191,4266.410156,4253.589844,4246.282227,4263.846191,0.000000,1.000000,15.000000,,,,0.000000,4.000000,4.000000,4.000000,4.000000,4.000000,2.000000,4.000000,4.000000,4.000000,4.000000,4.000000,4.000000,4.000000,4.000000,83.333336,,,,,,,,,,,,,,,,,,,,,,,,,,,,
1649282384.360377,1649282384.386699,55.000000,0.000000,4245.384766,4239.358887,4250.128418,4244.487305,4251.794922,4243.717773,4212.436035,4255.256348,4258.461426,4242.692383,4254.615234,4248.077148,4244.487305,4252.948730,0.000000,1.000000,15.000000,,,,0.000000,4.000000,4.000000,4.000000,4.000000,4.000000,2.000000,4.000000,4.000000,4.000000,4.000000,4.000000,4.000000,4.000000,4.000000,83.333336,,,,,,,,,,,,,,,,,,,,,,,,,,,,
1649282384.368198,1649282384.394425,56.000000,0.000000,4246.282227,4256.666504,4251.025879,4259.102539,4251.538574,4244.230957,4197.307617,4251.410156,4256.538574,4274.487305,4245.897461,4241.153809,4242.307617,4247.307617,0.000000,1.000000,15.000000,,,,0.000000,4.000000,4.000000,4.000000,4.000000,4.000000,2.000000,4.000000,4.000000,4.000000,4.000000,4.000000,4.000000,4.000000,4.000000,83.333336,,,,,,,,,,,,,,,,,14.000000,0.000000,0.398289,0.514282,-0.470337,0.596375,1.006363,-0.140139,0.032715,-29.010452,-101.237503,0.598154
1649282384.376019,1649282384.402350,57.000000,0.000000,4236.922852,4258.077148,4246.538574,4262.307617,4248.077148,4246.410156,4184.615234,4250.641113,4246.794922,4278.461426,4249.230957,4233.846191,4231.025879,4248.461426,0.000000,1.000000,15.000000,,,,0.000000,4.000000,4.000000,4.000000,4.000000,4.000000,2.000000,4.000000,4.000000,4.000000,4.000000,4.000000,4.000000,4.000000,4.000000,83.333336,,,,,,,,,,,,,,,,,,,,,,,,,,,,
1649282384.383840,1649282384.410176,58.000000,0.000000,4229.487305,4234.102539,4239.230957,4244.615234,4247.948730,4244.743652,4191.410156,4247.563965,4241.025879,4246.410156,4246.025879,4230.256348,4227.436035,4242.820313,0.000000,1.000000,15.000000,,,,0.000000,4.000000,4.000000,4.000000,4.000000,4.000000,2.000000,4.000000,4.000000,4.000000,4.000000,4.000000,4.000000,4.000000,4.000000,83.333336,,,,,,,,,,,,,,,,,,,,,,,,,,,,
1649282384.391662,1649282384.418001,59.000000,0.000000,4238.333496,4233.846191,4242.051270,4240.128418,4253.589844,4241.666504,4203.077148,4248.205078,4250.897461,4248.205078,4244.358887,4236.282227,4240.256348,4241.410156,0.000000,1.000000,15.000000,,,,0.000000,4.000000,4.000000,4.000000,4.000000,4.000000,2.000000,4.000000,4.000000,4.000000,4.000000,4.000000,4.000000,4.000000,4.000000,83.333336,,,,,,,,,,,,,,,,,,,,,,,,,,,,
1649282384.399483,1649282384.425727,60.000000,0.000000,4244.102539,4251.410156,4247.820313,4249.487305,4257.179688,4244.358887,4202.563965,4247.307617,4257.692383,4262.563965,4255.256348,4244.230957,4249.615234,4248.846191,0.000000,1.000000,15.000000,,,,0.000000,4.000000,4.000000,4.000000,4.000000,4.000000,2.000000,4.000000,4.000000,4.000000,4.000000,4.000000,4.000000,4.000000,4.000000,83.333336,,,,,,,,,,,,,,,,,15.000000,0.000000,0.397549,0.514404,-0.470520,0.596619,1.005386,-0.149905,0.030762,-30.206760,-98.695351,0.598154
1649282384.407304,1649282384.433653,61.000000,0.000000,4237.179688,4253.205078,4247.563965,4249.358887,4246.666504,4247.051270,4200.897461,4245.641113,4243.717773,4248.077148,4257.307617,4241.794922,4247.179688,4250.897461,0.000000,1.000000,15.000000,,,,0.000000,4.000000,4.000000,4.000000,4.000000,4.000000,2.000000,4.000000,4.000000,4.000000,4.000000,4.000000,4.000000,4.000000,4.000000,83.333336,,,,,,,,,,,,,,,,,,,,,,,,,,,,
1649282384.415125,1649282384.441478,62.000000,0.000000,4233.974121,4247.307617,4243.846191,4248.974121,4232.179688,4244.871582,4205.769043,4250.128418,4237.820313,4256.922852,4250.384766,4236.025879,4237.307617,4245.897461,0.000000,1.000000,15.000000,,,,0.000000,4.000000,4.000000,4.000000,4.000000,4.000000,2.000000,4.000000,4.000000,4.000000,4.000000,4.000000,4.000000,4.000000,4.000000,83.333336,,,,,,,,,,,,,,,,,,,,,,,,,,,,
1649282384.422946,1649282384.449304,63.000000,0.000000,4232.948730,4237.948730,4236.153809,4247.179688,4238.717773,4244.871582,4203.974121,4249.230957,4247.179688,4274.871582,4245.897461,4230.256348,4223.974121,4237.179688,0.000000,1.000000,15.000000,,,,0.000000,4.000000,4.000000,4.000000,4.000000,4.000000,2.000000,4.000000,4.000000,4.000000,4.000000,4.000000,4.000000,4.000000,4.000000,83.333336,,,,,,,,,,,,,,,,,,,,,,,,,,,,
1649282384.430767,1649282384.457030,64.000000,0.000000,4233.077148,4234.102539,4237.563965,4242.563965,4262.307617,4244.487305,4204.871582,4251.666504,4256.153809,4255.897461,4244.615234,4227.948730,4224.487305,4236.922852,3575.000000,1.000000,15.000000,,,,0.000000,4.000000,4.000000,4.000000,4.000000,4.000000,2.000000,4.000000,4.000000,4.000000,4.000000,4.000000,4.000000,4.000000,4.000000,83.333336,,,,,,,,,,,,,,,,,16.000000,0.000000,0.396788,0.514526,-0.470642,0.596924,1.004410,-0.143557,0.027832,-30.804913,-98.097198,0.448615
1649282384.438588,1649282384.464955,65.000000,0.000000,4244.743652,4255.641113,4249.358887,4255.128418,4266.153809,4241.794922,4215.897461,4269.358887,4264.358887,4254.871582,4246.922852,4241.153809,4243.589844,4249.230957,3550.000000,1.000000,15.000000,,,,0.000000,4.000000,4.000000,4.000000,4.000000,4.000000,2.000000,4.000000,4.000000,4.000000,4.000000,4.000000,4.000000,4.000000,4.000000,83.333336,,,,,,,,,,,,,,,,,,,,,,,,,,,,
1649282384.446409,1649282384.472781,66.000000,0.000000,4251.025879,4272.051270,4252.948730,4268.205078,4250.769043,4243.717773,4216.794922,4269.743652,4263.205078,4282.820313,4250.384766,4250.512695,4251.922852,4252.563965,3581.000000,1.000000,15.000000,,,,0.000000,4.000000,4.000000,4.000000,4.000000,4.000000,2.000000,4.000000,4.000000,4.000000,4.000000,4.000000,4.000000,4.000000,4.000000,83.333336,,,,,,,,,,,,,,,,,,,,,,,,,,,,
1649282384.454230,1649282384.480606,67.000000,0.000000,4238.846191,4248.461426,4246.666504,4255.128418,4246.794922,4247.820313,4207.563965,4247.948730,4249.102539,4263.077148,4246.922852,4238.077148,4235.512695,4243.333496,3568.000000,1.000000,15.000000,,,,0.000000,4.000000,4.000000,4.000000,4.000000,4.000000,2.000000,4.000000,4.000000,4.000000,4.000000,4.000000,4.000000,4.000000,4.000000,83.333336,,,,,,,,,,,,,,,,,,,,,,,,,,,,
1649282384.462051,1649282384.488332,68.000000,0.000000,4227.692383,4226.282227,4237.948730,4237.436035,4250.384766,4247.179688,4199.358887,4242.307617,4243.205078,4231.282227,4241.153809,4228.333496,4225.000000,4239.743652,3608.000000,1.000000,15.000000,,,,0.000000,4.000000,4.000000,4.000000,4.000000,4.000000,2.000000,4.000000,4.000000,4.000000,4.000000,4.000000,4.000000,4.000000,4.000000,83.333336,,,,,,,,,,,,,,,,,17.000000,0.000000,0.396078,0.514648,-0.470642,0.597290,1.003433,-0.140139,0.022461,-30.954453,-97.648582,1.046769
1649282384.469872,1649282384.496258,69.000000,0.000000,4232.307617,4242.692383,4235.897461,4249.102539,4248.333496,4243.461426,4199.230957,4251.794922,4252.051270,4260.384766,4247.307617,4236.922852,4238.717773,4246.153809,773.000000,1.000000,15.000000,,,,0.000000,4.000000,4.000000,4.000000,4.000000,4.000000,2.000000,4.000000,4.000000,4.000000,4.000000,4.000000,4.000000,4.000000,4.000000,83.333336,,,,,,,,,,,,,,,,,,,,,,,,,,,,
1649282384.477693,1649282384.504083,70.000000,0.000000,4236.794922,4251.410156,4240.384766,4259.487305,4243.589844,4238.333496,4211.538574,4248.461426,4247.179688,4281.410156,4247.563965,4238.461426,4247.820313,4247.820313,3640.000000,1.000000,15.000000,,,,0.000000,4.000000,4.000000,4.000000,4.000000,4.000000,2.000000,4.000000,4.000000,4.000000,4.000000,4.000000,4.000000,4.000000,4.000000,83.333336,,,,,,,,,,,,,,,,,,,,,,,,,,,,
1649282384.485514,1649282384.511909,71.000000,0.000000,4225.128418,4220.897461,4233.589844,4233.974121,4245.641113,4235.512695,4226.538574,4240.000000,4231.282227,4251.922852,4234.358887,4222.563965,4229.871582,4238.205078,3583.000000,1.000000,15.000000,,,,0.000000,4.000000,4.000000,4.000000,4.000000,4.000000,2.000000,4.000000,4.000000,4.000000,4.000000,4.000000,4.000000,4.000000,4.000000,83.333336,1.000000,41.666668,4.000000,4.000000,4.000000,4.000000,4.000000,1.000000,3.000000,4.000000,4.000000,1.000000,4.000000,4.000000,4.000000,4.000000,,,,,,,,,,,,
1649282384.493335,1649282384.519635,72.000000,0.000000,4211.282227,4211.538574,4222.948730,4219.487305,4248.333496,4235.000000,4233.717773,4246.025879,4235.128418,4241.282227,4229.615234,4213.333496,4209.102539,4227.307617,3540.000000,1.000000,15.000000,,,,0.000000,4.000000,4.000000,4.000000,4.000000,4.000000,2.000000,4.000000,4.000000,4.000000,4.000000,4.000000,4.000000,4.000000,4.000000,83.333336,,,,,,,,,,,,,,,,,18.000000,0.000000,0.395319,0.515015,-0.470337,0.597717,1.000504,-0.150881,0.040040,-29.758144,-99.143967,0.299077
1649282384.501156,1649282384.527360,73.000000,0.000000,4215.641113,4233.333496,4225.897461,4236.282227,4241.538574,4234.615234,4236.282227,4258.717773,4248.077148,4259.615234,4229.358887,4214.102539,4214.102539,4222.563965,3633.000000,1.000000,15.000000,,,,0.000000,4.000000,4.000000,4.000000,4.000000,4.000000,2.000000,4.000000,4.000000,4.000000,4.000000,4.000000,4.000000,4.000000,4.000000,83.333336,,,,,,,,,,,,,,,,,,,,,,,,,,,,
1649282384.508978,1649282384.535186,74.000000,0.000000,4224.743652,4231.922852,4230.897461,4238.077148,4240.256348,4240.000000,4233.333496,4261.025879,4250.897461,4256.410156,4224.743652,4214.358887,4229.358887,4222.563965,3628.000000,1.000000,15.000000,,,,0.000000,4.000000,4.000000,4.000000,4.000000,4.000000,2.000000,4.000000,4.000000,4.000000,4.000000,4.000000,4.000000,4.000000,4.000000,83.333336,,,,,,,,,,,,,,,,,,,,,,,,,,,,
1649282384.516799,1649282384.542912,75.000000,0.000000,4230.769043,4229.358887,4238.589844,4232.307617,4247.436035,4247.179688,4222.948730,4263.077148,4253.077148,4257.820313,4240.384766,4226.794922,4233.077148,4235.512695,3295.000000,1.000000,15.000000,,,,0.000000,4.000000,4.000000,4.000000,4.000000,4.000000,2.000000,4.000000,4.000000,4.000000,4.000000,4.000000,4.000000,4.000000,4.000000,83.333336,,,,,,,,,,,,,,,,,,,,,,,,,,,,
1649282384.524620,1649282384.550837,76.000000,0.000000,4242.436035,4245.769043,4250.000000,4245.000000,4250.897461,4245.769043,4210.128418,4268.333496,4257.948730,4274.487305,4258.717773,4243.589844,4238.717773,4250.769043,3542.000000,1.000000,15.000000,,,,0.000000,4.000000,4.000000,4.000000,4.000000,4.000000,2.000000,4.000000,4.000000,4.000000,4.000000,4.000000,4.000000,4.000000,4.000000,83.333336,,,,,,,,,,,,,,,,,19.000000,0.000000,0.394850,0.515076,-0.470276,0.598022,0.998550,-0.147951,0.036622,-30.954453,-99.443047,1.046769
1649282384.532441,1649282384.558663,77.000000,0.000000,4245.897461,4250.897461,4248.333496,4252.436035,4248.846191,4242.692383,4197.179688,4259.230957,4256.025879,4263.717773,4247.948730,4239.871582,4252.179688,4246.282227,3457.000000,1.000000,15.000000,,,,0.000000,4.000000,4.000000,4.000000,4.000000,4.000000,2.000000,4.000000,4.000000,4.000000,4.000000,4.000000,4.000000,4.000000,4.000000,83.333336,,,,,,,,,,,,,,,,,,,,,,,,,,,,
1649282384.540262,1649282384.566488,78.000000,0.000000,4244.743652,4257.436035,4250.128418,4258.717773,4249.743652,4245.897461,4200.769043,4256.538574,4265.384766,4272.692383,4251.153809,4242.051270,4270.384766,4246.666504,3628.000000,1.000000,15.000000,,,,0.000000,4.000000,4.000000,4.000000,4.000000,4.000000,2.000000,4.000000,4.000000,4.000000,4.000000,4.000000,4.000000,4.000000,4.000000,83.333336,,,,,,,,,,,,,,,,,,,,,,,,,,,,
1649282384.548083,1649282384.574214,79.000000,0.000000,4255.641113,4264.871582,4265.256348,4269.102539,4255.256348,4247.436035,4214.230957,4280.256348,4286.025879,4310.641113,4283.077148,4262.563965,4279.615234,4266.666504,3295.000000,1.000000,15.000000,,,,0.000000,4.000000,4.000000,4.000000,4.000000,4.000000,2.000000,4.000000,4.000000,4.000000,4.000000,4.000000,4.000000,4.000000,4.000000,83.333336,,,,,,,,,,,,,,,,,,,,,,,,,,,,
1649282384.555904,1649282384.582140,80.000000,0.000000,4255.641113,4246.025879,4258.461426,4254.487305,4260.000000,4243.974121,4211.153809,4282.692383,4279.871582,4298.974121,4282.307617,4256.153809,4263.846191,4269.871582,3542.000000,1.000000,15.000000,,,,0.000000,4.000000,4.000000,4.000000,4.000000,4.000000,2.000000,4.000000,4.000000,4.000000,4.000000,4.000000,4.000000,4.000000,4.000000,83.333336,,,,,,,,,,,,,,,,,20.000000,0.000000,0.393829,0.515381,-0.469788,0.598816,1.001480,-0.149905,0.020508,-31.552605,-100.340279,1.196307
1649282384.563725,1649282384.589965,81.000000,0.000000,4245.384766,4248.333496,4247.563965,4253.333496,4254.487305,4244.487305,4211.025879,4262.436035,4263.461426,4264.102539,4263.333496,4241.538574,4265.256348,4262.179688,3457.000000,1.000000,15.000000,,,,0.000000,4.000000,4.000000,4.000000,4.000000,4.000000,2.000000,4.000000,4.000000,4.000000,4.000000,4.000000,4.000000,4.000000,4.000000,83.333336,,,,,,,,,,,,,,,,,,,,,,,,,,,,
1649282384.571546,1649282384.597791,82.000000,0.000000,4249.358887,4283.205078,4256.153809,4281.282227,4241.410156,4246.794922,4221.410156,4257.179688,4265.128418,4264.743652,4273.846191,4247.820313,4289.358887,4264.102539,3628.000000,1.000000,15.000000,,,,0.000000,4.000000,4.000000,4.000000,4.000000,4.000000,2.000000,4.000000,4.000000,4.000000,4.000000,4.000000,4.000000,4.000000,4.000000,83.333336,,,,,,,,,,,,,,,,,,,,,,,,,,,,
1649282384.579367,1649282384.605516,83.000000,0.000000,4250.512695,4272.820313,4254.871582,4273.205078,4238.461426,4245.641113,4217.692383,4257.436035,4266.666504,4279.358887,4276.666504,4242.563965,4279.871582,4256.025879,3295.000000,1.000000,15.000000,,,,0.000000,4.000000,4.000000,4.000000,4.000000,4.000000,2.000000,4.000000,4.000000,4.000000,4.000000,4.000000,4.000000,4.000000,4.000000,83.333336,,,,,,,,,,,,,,,,,,,,,,,,,,,,
1649282384.587188,1649282384.613442,84.000000,0.000000,4235.128418,4229.230957,4242.436035,4240.641113,4247.820313,4243.717773,4212.692383,4253.717773,4260.769043,4284.871582,4253.205078,4227.948730,4252.307617,4242.692383,3542.000000,1.000000,15.000000,,,,0.000000,4.000000,4.000000,4.000000,4.000000,4.000000,2.000000,4.000000,4.000000,4.000000,4.000000,4.000000,4.000000,4.000000,4.000000,83.333336,,,,,,,,,,,,,,,,,21.000000,0.000000,0.392996,0.515564,-0.469116,0.599731,0.996109,-0.159182,0.030274,-30.505836,-99.443047,-0.299077
1649282384.595009,1649282384.621268,85.000000,0.000000,4230.641113,4224.615234,4242.820313,4236.282227,4257.179688,4245.256348,4215.769043,4257.307617,4263.846191,4277.820313,4245.256348,4230.384766,4259.358887,4246.153809,3457.000000,1.000000,15.000000,,,,0.000000,4.000000,4.000000,4.000000,4.000000,4.000000,2.000000,4.000000,4.000000,4.000000,4.000000,4.000000,4.000000,4.000000,4.000000,83.333336,,,,,,,,,,,,,,,,,,,,,,,,,,,,
1649282384.602831,1649282384.629093,86.000000,0.000000,4240.256348,4249.358887,4248.461426,4252.051270,4254.230957,4246.153809,4212.948730,4264.743652,4268.077148,4270.769043,4256.410156,4236.282227,4259.615234,4250.769043,3628.000000,1.000000,15.000000,,,,0.000000,4.000000,4.000000,4.000000,4.000000,4.000000,2.000000,4.000000,4.000000,4.000000,4.000000,4.000000,4.000000,4.000000,4.000000,83.333336,,,,,,,,,,,,,,,,,,,,,,,,,,,,
1649282384.610652,1649282384.636819,87.000000,0.000000,4244.230957,4257.692383,4248.077148,4259.615234,4242.948730,4244.871582,4209.487305,4259.230957,4254.615234,4261.538574,4259.615234,4231.410156,4244.230957,4245.512695,3295.000000,1.000000,15.000000,,,,0.000000,4.000000,4.000000,4.000000,4.000000,4.000000,2.000000,4.000000,4.000000,4.000000,4.000000,4.000000,4.000000,4.000000,4.000000,83.333336,,,,,,,,,,,,,,,,,,,,,,,,,,,,
1649282384.618473,1649282384.644744,88.000000,0.000000,4243.846191,4246.794922,4249.615234,4253.077148,4247.692383,4245.641113,4209.871582,4248.461426,4243.974121,4239.871582,4258.077148,4233.461426,4258.077148,4250.769043,3542.000000,1.000000,15.000000,,,,0.000000,4.000000,4.000000,4.000000,4.000000,4.000000,2.000000,4.000000,4.000000,4.000000,4.000000,4.000000,4.000000,4.000000,4.000000,83.333336,,,,,,,,,,,,,,,,,22.000000,0.000000,0.392077,0.515808,-0.468445,0.600647,1.011734,-0.176272,0.043458,-31.103991,-99.592583,-0.448615
1649282384.626294,1649282384.652570,89.000000,0.000000,4245.512695,4242.692383,4251.025879,4246.025879,4255.769043,4246.922852,4203.974121,4243.205078,4251.153809,4236.794922,4255.384766,4239.487305,4256.153809,4257.563965,3457.000000,1.000000,15.000000,,,,0.000000,4.000000,4.000000,4.000000,4.000000,4.000000,2.000000,4.000000,4.000000,4.000000,4.000000,4.000000,4.000000,4.000000,4.000000,83.333336,,,,,,,,,,,,,,,,,,,,,,,,,,,,
1649282384.634115,1649282384.660396,90.000000,0.000000,4246.922852,4256.025879,4251.794922,4253.461426,4250.384766,4246.922852,4199.230957,4244.743652,4261.025879,4274.358887,4247.436035,4234.871582,4243.077148,4255.512695,3628.000000,1.000000,15.000000,,,,0.000000,4.000000,4.000000,4.000000,4.000000,4.000000,2.000000,4.000000,4.000000,4.000000,4.000000,4.000000,4.000000,4.000000,4.000000,83.333336,,,,,,,,,,,,,,,,,,,,,,,,,,,,
1649282384.641936,1649282384.668121,91.000000,0.000000,4246.410156,4263.333496,4250.512695,4263.077148,4248.717773,4245.769043,4200.384766,4254.871582,4262.692383,4291.282227,4246.538574,4230.384766,4265.128418,4257.692383,3295.000000,1.000000,15.000000,,,,0.000000,4.000000,4.000000,4.000000,4.000000,4.000000,2.000000,4.000000,4.000000,4.000000,4.000000,4.000000,4.000000,4.000000,4.000000,83.333336,,,,,,,,,,,,,,,,,,,,,,,,,,,,
1649282384.649757,1649282384.675947,92.000000,0.000000,4247.436035,4253.205078,4250.512695,4262.820313,4251.025879,4245.000000,4203.077148,4261.153809,4261.794922,4268.589844,4260.769043,4240.512695,4277.563965,4263.589844,3542.000000,1.000000,15.000000,,,,0.000000,4.000000,4.000000,4.000000,4.000000,4.000000,2.000000,4.000000,4.000000,4.000000,4.000000,4.000000,4.000000,4.000000,4.000000,83.333336,,,,,,,,,,,,,,,,,23.000000,0.000000,0.391412,0.516235,-0.467590,0.601379,1.008316,-0.156741,0.037598,-30.206760,-99.443047,-0.299077
1649282384.657578,1649282384.683873,93.000000,0.000000,4250.641113,4247.307617,4256.666504,4261.922852,4245.256348,4244.743652,4204.743652,4255.000000,4264.615234,4259.615234,4274.358887,4252.307617,4265.769043,4265.256348,3457.000000,1.000000,15.000000,,,,0.000000,4.000000,4.000000,4.000000,4.000000,4.000000,2.000000,4.000000,4.000000,4.000000,4.000000,4.000000,4.000000,4.000000,4.000000,83.333336,,,,,,,,,,,,,,,,,,,,,,,,,,,,
1649282384.665399,1649282384.691698,94.000000,0.000000,4250.769043,4252.563965,4254.871582,4264.615234,4248.717773,4243.589844,4199.743652,4243.717773,4266.922852,4266.282227,4271.538574,4251.153809,4282.307617,4265.769043,3628.000000,1.000000,15.000000,,,,0.000000,4.000000,4.000000,4.000000,4.000000,4.000000,2.000000,4.000000,4.000000,4.000000,4.000000,4.000000,4.000000,4.000000,4.000000,83.333336,,,,,,,,,,,,,,,,,,,,,,,,,,,,
1649282384.673220,1649282384.699524,95.000000,0.000000,4248.974121,4254.615234,4249.871582,4262.307617,4261.538574,4242.563965,4200.128418,4246.153809,4267.051270,4273.077148,4262.692383,4249.102539,4304.230957,4267.051270,3295.000000,1.000000,15.000000,,,,0.000000,4.000000,4.000000,4.000000,4.000000,4.000000,2.000000,4.000000,4.000000,4.000000,4.000000,4.000000,4.000000,4.000000,4.000000,83.333336,,,,,,,,,,,,,,,,,,,,,,,,,,,,
1649282384.681041,1649282384.707249,96.000000,0.000000,4250.128418,4246.794922,4254.358887,4253.333496,4257.692383,4244.358887,4216.410156,4253.974121,4266.153809,4280.384766,4264.358887,4251.666504,4280.897461,4268.461426,3542.000000,1.000000,15.000000,,,,0.000000,4.000000,4.000000,4.000000,4.000000,4.000000,2.000000,4.000000,4.000000,4.000000,4.000000,4.000000,4.000000,4.000000,4.000000,83.333336,,,,,,,,,,,,,,,,,24.000000,0.000000,0.391173,0.516724,-0.466858,0.601685,1.007828,-0.146487,0.022950,-30.505836,-100.190735,1.046769
1649282384.688862,1649282384.715175,97.000000,0.000000,4250.512695,4238.077148,4255.641113,4246.538574,4248.077148,4246.538574,4226.282227,4250.641113,4263.077148,4273.974121,4268.077148,4250.000000,4258.077148,4267.051270,3457.000000,1.000000,15.000000,,,,0.000000,4.000000,4.000000,4.000000,4.000000,4.000000,2.000000,4.000000,4.000000,4.000000,4.000000,4.000000,4.000000,4.000000,4.000000,83.333336,,,,,,,,,,,,,,,,,,,,,,,,,,,,
1649282384.696683,1649282384.723001,98.000000,0.000000,4246.922852,4230.256348,4246.794922,4244.615234,4243.333496,4243.589844,4224.487305,4247.307617,4256.153809,4249.102539,4259.743652,4244.230957,4258.974121,4260.000000,3628.000000,1.000000,15.000000,,,,0.000000,4.000000,4.000000,4.000000,4.000000,4.000000,2.000000,4.000000,4.000000,4.000000,4.000000,4.000000,4.000000,4.000000,4.000000,83.333336,,,,,,,,,,,,,,,,,,,,,,,,,,,,
1649282384.704504,1649282384.730826,99.000000,0.000000,4243.974121,4226.153809,4245.384766,4241.410156,4238.974121,4240.384766,4228.461426,4252.948730,4252.820313,4235.641113,4260.128418,4243.846191,4258.974121,4257.692383,3295.000000,1.000000,15.000000,,,,0.000000,4.000000,4.000000,4.000000,4.000000,4.000000,2.000000,4.000000,4.000000,4.000000,4.000000,4.000000,4.000000,4.000000,4.000000,83.333336,,,,,,,,,,,,,,,,,,,,,,,,,,,,
1649282384.712325,1649282384.738552,100.000000,0.000000,4247.436035,4233.974121,4253.589844,4239.743652,4243.333496,4241.410156,4234.102539,4260.769043,4263.077148,4268.717773,4271.666504,4248.333496,4265.128418,4261.538574,3542.000000,1.000000,15.000000,,,,0.000000,4.000000,4.000000,4.000000,4.000000,4.000000,2.000000,4.000000,4.000000,4.000000,4.000000,4.000000,4.000000,4.000000,4.000000,83.333336,,,,,,,,,,,,,,,,,25.000000,0.000000,0.390828,0.517212,-0.466370,0.601868,0.999039,-0.157229,0.038575,-30.505836,-99.443047,-0.299077
1649282384.720147,1649282384.746477,101.000000,0.000000,4257.307617,4251.153809,4261.153809,4253.077148,4246.922852,4243.846191,4235.000000,4264.358887,4275.000000,4296.666504,4273.589844,4253.717773,4281.666504,4268.717773,3457.000000,1.000000,15.000000,,,,0.000000,4.000000,4.000000,4.000000,4.000000,4.000000,2.000000,4.000000,4.000000,4.000000,4.000000,4.000000,4.000000,4.000000,4.000000,83.333336,,,,,,,,,,,,,,,,,,,,,,,,,,,,
1649282384.727968,1649282384.754303,102.000000,0.000000,4263.077148,4253.846191,4263.589844,4263.846191,4246.410156,4244.871582,4234.871582,4263.974121,4268.717773,4268.974121,4267.692383,4258.077148,4286.410156,4272.820313,3628.000000,1.000000,15.000000,,,,0.000000,4.000000,4.000000,4.000000,4.000000,4.000000,2.000000,4.000000,4.000000,4.000000,4.000000,4.000000,4.000000,4.000000,4.000000,83.333336,,,,,,,,,,,,,,,,,,,,,,,,,,,,
1649282384.735789,1649282384.762129,103.000000,0.000000,4262.179688,4242.692383,4263.077148,4258.205078,4243.589844,4245.128418,4231.666504,4257.563965,4258.077148,4244.487305,4264.358887,4258.205078,4268.846191,4269.487305,3295.000000,1.000000,15.000000,,,,0.000000,4.000000,4.000000,4.000000,4.000000,4.000000,2.000000,4.000000,4.000000,4.000000,4.000000,4.000000,4.000000,4.000000,4.000000,83.333336,,,,,,,,,,,,,,,,,,,,,,,,,,,,
1649282384.743610,1649282384.769854,104.000000,0.000000,4270.769043,4254.487305,4272.179688,4263.205078,4237.436035,4244.487305,4236.794922,4263.077148,4269.615234,4267.051270,4270.641113,4262.051270,4259.615234,4272.563965,3542.000000,1.000000,15.000000,,,,0.000000,4.000000,4.000000,4.000000,4.000000,4.000000,2.000000,4.000000,4.000000,4.000000,4.000000,4.000000,4.000000,4.000000,4.000000,83.333336,,,,,,,,,,,,,,,,,26.000000,0.000000,0.390660,0.517456,-0.466003,0.602051,1.023453,-0.147951,0.027344,-28.711376,-98.545815,0.149538
1649282384.751431,1649282384.777780,105.000000,0.000000,4278.077148,4271.025879,4276.410156,4276.153809,4238.589844,4244.487305,4247.692383,4277.563965,4279.358887,4277.436035,4273.333496,4262.563965,4275.512695,4276.282227,3457.000000,1.000000,15.000000,,,,0.000000,4.000000,4.000000,4.000000,4.000000,4.000000,2.000000,4.000000,4.000000,4.000000,4.000000,4.000000,4.000000,4.000000,4.000000,83.333336,,,,,,,,,,,,,,,,,,,,,,,,,,,,
1649282384.759252,1649282384.785605,106.000000,0.000000,4263.717773,4253.717773,4261.922852,4267.051270,4249.871582,4247.307617,4244.743652,4270.512695,4267.692383,4264.102539,4264.358887,4251.410156,4290.000000,4268.205078,3628.000000,1.000000,15.000000,,,,0.000000,4.000000,4.000000,4.000000,4.000000,4.000000,2.000000,4.000000,4.000000,4.000000,4.000000,4.000000,4.000000,4.000000,4.000000,83.333336,,,,,,,,,,,,,,,,,,,,,,,,,,,,
1649282384.767073,1649282384.793431,107.000000,0.000000,4248.717773,4228.589844,4251.410156,4245.897461,4248.205078,4244.871582,4226.794922,4253.333496,4260.384766,4261.410156,4265.512695,4241.922852,4274.615234,4265.128418,3295.000000,1.000000,15.000000,,,,0.000000,4.000000,4.000000,4.000000,4.000000,4.000000,2.000000,4.000000,4.000000,4.000000,4.000000,4.000000,4.000000,4.000000,4.000000,83.333336,,,,,,,,,,,,,,,,,,,,,,,,,,,,
1649282384.774894,1649282384.801157,108.000000,0.000000,4246.025879,4230.769043,4248.846191,4243.333496,4237.179688,4238.846191,4217.307617,4254.487305,4261.282227,4252.820313,4269.743652,4237.179688,4246.922852,4262.563965,3542.000000,1.000000,15.000000,,,,0.000000,4.000000,4.000000,4.000000,4.000000,4.000000,2.000000,4.000000,4.000000,4.000000,4.000000,4.000000,4.000000,4.000000,4.000000,83.333336,,,,,,,,,,,,,,,,,27.000000,0.000000,0.390724,0.517517,-0.465881,0.602051,1.004898,-0.151858,0.031250,-29.159990,-100.041199,0.897231
1649282384.782715,1649282384.809082,109.000000,0.000000,4242.179688,4244.871582,4243.333496,4248.974121,4242.307617,4240.897461,4223.077148,4262.307617,4262.692383,4252.179688,4252.563965,4228.846191,4252.179688,4248.461426,3457.000000,1.000000,15.000000,,,,0.000000,4.000000,4.000000,4.000000,4.000000,4.000000,2.000000,4.000000,4.000000,4.000000,4.000000,4.000000,4.000000,4.000000,4.000000,83.333336,,,,,,,,,,,,,,,,,,,,,,,,,,,,
1649282384.790536,1649282384.816908,110.000000,0.000000,4241.410156,4243.974121,4242.307617,4247.563965,4248.974121,4248.846191,4227.307617,4263.205078,4272.948730,4273.717773,4240.769043,4232.051270,4277.051270,4250.128418,3628.000000,1.000000,15.000000,,,,0.000000,4.000000,4.000000,4.000000,4.000000,4.000000,2.000000,4.000000,4.000000,4.000000,4.000000,4.000000,4.000000,4.000000,4.000000,83.333336,,,,,,,,,,,,,,,,,,,,,,,,,,,,
1649282384.798357,1649282384.824734,111.000000,0.000000,4249.871582,4243.589844,4250.641113,4248.589844,4240.256348,4244.871582,4222.563965,4262.307617,4277.179688,4267.948730,4253.333496,4245.256348,4278.717773,4263.846191,3295.000000,1.000000,15.000000,,,,0.000000,4.000000,4.000000,4.000000,4.000000,4.000000,2.000000,4.000000,4.000000,4.000000,4.000000,4.000000,4.000000,4.000000,4.000000,83.333336,,,,,,,,,,,,,,,,,,,,,,,,,,,,
1649282384.806178,1649282384.832459,112.000000,0.000000,4250.769043,4247.051270,4251.025879,4252.692383,4229.615234,4235.897461,4212.563965,4250.000000,4253.077148,4241.794922,4252.692383,4237.948730,4261.922852,4253.205078,3542.000000,1.000000,15.000000,,,,0.000000,4.000000,4.000000,4.000000,4.000000,4.000000,2.000000,4.000000,4.000000,4.000000,4.000000,4.000000,4.000000,4.000000,4.000000,83.333336,,,,,,,,,,,,,,,,,28.000000,0.000000,0.390760,0.517639,-0.465637,0.602112,1.013199,-0.155764,0.032227,-29.159990,-98.844894,0.149538
1649282384.814000,1649282384.840385,113.000000,0.000000,4244.615234,4231.410156,4248.461426,4246.410156,4230.256348,4240.897461,4208.461426,4233.461426,4226.410156,4239.358887,4246.025879,4230.384766,4243.846191,4243.077148,3457.000000,1.000000,15.000000,,,,0.000000,4.000000,4.000000,4.000000,4.000000,4.000000,2.000000,4.000000,4.000000,4.000000,4.000000,4.000000,4.000000,4.000000,4.000000,83.333336,,,,,,,,,,,,,,,,,,,,,,,,,,,,
1649282384.821821,1649282384.848210,114.000000,0.000000,4251.666504,4222.948730,4254.871582,4241.153809,4232.692383,4247.563965,4207.820313,4229.487305,4228.461426,4248.461426,4260.128418,4244.230957,4238.974121,4255.384766,3628.000000,1.000000,15.000000,,,,0.000000,4.000000,4.000000,4.000000,4.000000,4.000000,2.000000,4.000000,4.000000,4.000000,4.000000,4.000000,4.000000,4.000000,4.000000,83.333336,,,,,,,,,,,,,,,,,,,,,,,,,,,,
1649282384.829642,1649282384.856036,115.000000,0.000000,4265.128418,4252.948730,4264.230957,4257.820313,4228.974121,4244.102539,4204.743652,4231.922852,4248.333496,4252.692383,4267.307617,4252.436035,4263.077148,4266.410156,3295.000000,1.000000,15.000000,,,,0.000000,4.000000,4.000000,4.000000,4.000000,4.000000,2.000000,4.000000,4.000000,4.000000,4.000000,4.000000,4.000000,4.000000,4.000000,83.333336,,,,,,,,,,,,,,,,,,,,,,,,,,,,
1649282384.837463,1649282384.863862,116.000000,0.000000,4265.769043,4276.666504,4266.153809,4276.922852,4236.538574,4242.948730,4210.641113,4242.692383,4262.307617,4262.948730,4262.307617,4250.512695,4286.153809,4267.692383,3542.000000,1.000000,15.000000,,,,0.000000,4.000000,4.000000,4.000000,4.000000,4.000000,2.000000,4.000000,4.000000,4.000000,4.000000,4.000000,4.000000,4.000000,4.000000,83.333336,,,,,,,,,,,,,,,,,29.000000,0.000000,0.390278,0.517883,-0.465454,0.602356,1.011246,-0.144533,0.030762,-30.206760,-99.443047,0.299077
1649282384.845284,1649282384.871687,117.000000,0.000000,4254.871582,4257.692383,4257.948730,4266.282227,4249.487305,4243.077148,4215.769043,4251.922852,4261.153809,4265.641113,4263.717773,4246.282227,4277.948730,4266.025879,3457.000000,1.000000,15.000000,,,,0.000000,4.000000,4.000000,4.000000,4.000000,4.000000,2.000000,4.000000,4.000000,4.000000,4.000000,4.000000,4.000000,4.000000,4.000000,83.333336,,,,,,,,,,,,,,,,,,,,,,,,,,,,
1649282384.853105,1649282384.879513,118.000000,0.000000,4243.589844,4236.153809,4245.641113,4245.897461,4251.922852,4238.589844,4199.615234,4237.820313,4246.666504,4249.487305,4254.743652,4231.794922,4255.128418,4261.153809,3628.000000,1.000000,15.000000,,,,0.000000,4.000000,4.000000,4.000000,4.000000,4.000000,2.000000,4.000000,4.000000,4.000000,4.000000,4.000000,4.000000,4.000000,4.000000,83.333336,,,,,,,,,,,,,,,,,,,,,,,,,,,,
1649282384.860926,1649282384.887239,119.000000,0.000000,4242.692383,4243.589844,4246.282227,4251.922852,4245.128418,4238.846191,4188.589844,4221.666504,4230.641113,4248.589844,4243.846191,4226.282227,4244.487305,4261.538574,3295.000000,1.000000,15.000000,,,,0.000000,4.000000,4.000000,4.000000,4.000000,4.000000,2.000000,4.000000,4.000000,4.000000,4.000000,4.000000,4.000000,4.000000,4.000000,83.333336,,,,,,,,,,,,,,,,,,,,,,,,,,,,
1649282384.868747,1649282384.895164,120.000000,0.000000,4258.205078,4252.820313,4262.051270,4266.922852,4237.179688,4245.512695,4208.974121,4238.333496,4241.538574,4260.384766,4262.563965,4243.846191,4258.333496,4271.025879,3542.000000,1.000000,15.000000,,,,0.000000,4.000000,4.000000,4.000000,4.000000,4.000000,2.000000,4.000000,4.000000,4.000000,4.000000,4.000000,4.000000,4.000000,4.000000,83.333336,,,,,,,,,,,,,,,,,30.000000,0.000000,0.389970,0.518066,-0.465271,0.602539,0.987808,-0.149416,0.023438,-31.103991,-98.844894,0.448615
1649282384.876568,1649282384.902990,121.000000,0.000000,4266.794922,4252.051270,4269.615234,4266.666504,4232.563965,4242.563965,4217.307617,4253.077148,4264.615234,4250.256348,4277.948730,4252.820313,4282.436035,4272.820313,3457.000000,1.000000,15.000000,,,,0.000000,4.000000,4.000000,4.000000,4.000000,4.000000,2.000000,4.000000,4.000000,4.000000,4.000000,4.000000,4.000000,4.000000,4.000000,83.333336,,,,,,,,,,,,,,,,,,,,,,,,,,,,
1649282384.884389,1649282384.910815,122.000000,0.000000,4257.051270,4256.666504,4262.948730,4264.743652,4230.769043,4236.282227,4201.410156,4238.717773,4260.000000,4246.025879,4264.743652,4244.615234,4282.948730,4267.692383,3628.000000,1.000000,15.000000,,,,0.000000,4.000000,4.000000,4.000000,4.000000,4.000000,2.000000,4.000000,4.000000,4.000000,4.000000,4.000000,4.000000,4.000000,4.000000,83.333336,,,,,,,,,,,,,,,,,,,,,,,,,,,,
1649282384.892210,1649282384.918541,123.000000,0.000000,4252.436035,4254.358887,4258.077148,4262.692383,4239.743652,4241.794922,4199.615234,4231.538574,4246.922852,4264.358887,4257.307617,4243.077148,4263.333496,4268.205078,3295.000000,1.000000,15.000000,,,,0.000000,4.000000,4.000000,4.000000,4.000000,4.000000,2.000000,4.000000,4.000000,4.000000,4.000000,4.000000,4.000000,4.000000,4.000000,83.333336,,,,,,,,,,,,,,,,,,,,,,,,,,,,
1649282384.900031,1649282384.926467,124.000000,0.000000,4243.333496,4234.487305,4244.871582,4246.666504,4249.230957,4246.410156,4200.897461,4226.922852,4235.512695,4256.794922,4254.230957,4233.846191,4248.846191,4256.666504,3542.000000,1.000000,15.000000,,,,0.000000,4.000000,4.000000,4.000000,4.000000,4.000000,2.000000,4.000000,4.000000,4.000000,4.000000,4.000000,4.000000,4.000000,4.000000,83.333336,,,,,,,,,,,,,,,,,31.000000,0.000000,0.389567,0.518311,-0.464783,0.602966,1.000015,-0.164065,0.036133,-30.804913,-100.340279,-0.149538
1649282384.907852,1649282384.934292,125.000000,0.000000,4231.794922,4232.307617,4234.102539,4244.102539,4237.307617,4242.820313,4201.666504,4218.461426,4224.102539,4233.205078,4243.333496,4221.794922,4241.282227,4245.000000,3457.000000,1.000000,15.000000,,,,0.000000,4.000000,4.000000,4.000000,4.000000,4.000000,2.000000,4.000000,4.000000,4.000000,4.000000,4.000000,4.000000,4.000000,4.000000,83.333336,,,,,,,,,,,,,,,,,,,,,,,,,,,,
1649282384.915673,1649282384.942118,126.000000,0.000000,4242.051270,4249.871582,4244.743652,4262.436035,4227.051270,4245.641113,4228.846191,4235.256348,4235.641113,4245.897461,4243.461426,4229.615234,4251.538574,4254.230957,3628.000000,1.000000,15.000000,,,,0.000000,4.000000,4.000000,4.000000,4.000000,4.000000,2.000000,4.000000,4.000000,4.000000,4.000000,4.000000,4.000000,4.000000,4.000000,83.333336,,,,,,,,,,,,,,,,,,,,,,,,,,,,
1649282384.923494,1649282384.949843,127.000000,0.000000,4244.102539,4239.871582,4250.128418,4252.948730,4241.794922,4246.282227,4252.436035,4253.333496,4249.230957,4252.179688,4247.307617,4231.410156,4263.717773,4254.615234,52.000000,1.000000,15.000000,,,,0.000000,4.000000,4.000000,4.000000,4.000000,4.000000,2.000000,4.000000,4.000000,4.000000,4.000000,4.000000,4.000000,4.000000,4.000000,83.333336,,,,,,,,,,,,,,,,,,,,,,,,,,,,
1649282384.931316,1649282384.957769,0.000000,0.000000,4231.538574,4223.717773,4240.000000,4234.358887,4246.922852,4237.179688,4245.512695,4238.589844,4233.461426,4226.538574,4246.538574,4219.871582,4254.487305,4245.000000,3572.000000,1.000000,15.000000,,,,0.000000,4.000000,4.000000,4.000000,4.000000,4.000000,2.000000,4.000000,4.000000,4.000000,4.000000,4.000000,4.000000,4.000000,4.000000,83.333336,,,,,,,,,,,,,,,,,0.000000,0.000000,0.389200,0.518860,-0.463684,0.603577,0.996597,-0.136721,0.032715,-30.356298,-100.041199,-0.448615
1649282384.939137,1649282384.965595,1.000000,0.000000,4235.000000,4238.205078,4240.000000,4242.436035,4229.102539,4235.897461,4230.256348,4224.487305,4226.666504,4221.282227,4251.666504,4218.974121,4240.769043,4250.128418,3541.000000,1.000000,15.000000,,,,0.000000,4.000000,4.000000,4.000000,4.000000,4.000000,2.000000,4.000000,4.000000,4.000000,4.000000,4.000000,4.000000,4.000000,4.000000,83.333336,,,,,,,,,,,,,,,,,,,,,,,,,,,,
1649282384.946958,1649282384.973420,2.000000,0.000000,4239.358887,4250.512695,4245.256348,4255.641113,4228.205078,4245.897461,4221.794922,4233.205078,4243.333496,4246.538574,4249.358887,4225.000000,4248.333496,4254.102539,3578.000000,1.000000,15.000000,,,,0.000000,4.000000,4.000000,4.000000,4.000000,4.000000,2.000000,4.000000,4.000000,4.000000,4.000000,4.000000,4.000000,4.000000,4.000000,83.333336,,,,,,,,,,,,,,,,,,,,,,,,,,,,
1649282384.954779,1649282384.981146,3.000000,0.000000,4237.307617,4246.282227,4243.333496,4257.179688,4243.205078,4248.589844,4213.333496,4236.282227,4244.230957,4265.384766,4247.436035,4228.461426,4264.871582,4253.589844,3560.000000,1.000000,15.000000,,,,0.000000,4.000000,4.000000,4.000000,4.000000,4.000000,2.000000,4.000000,4.000000,4.000000,4.000000,4.000000,4.000000,4.000000,4.000000,83.333336,,,,,,,,,,,,,,,,,,,,,,,,,,,,
1649282384.962600,1649282384.989071,4.000000,0.000000,4245.641113,4242.563965,4246.025879,4251.410156,4246.538574,4241.410156,4204.743652,4233.333496,4235.512695,4259.743652,4263.333496,4234.871582,4266.410156,4262.948730,3608.000000,1.000000,15.000000,,,,0.000000,4.000000,4.000000,4.000000,4.000000,4.000000,2.000000,4.000000,4.000000,4.000000,4.000000,4.000000,4.000000,4.000000,4.000000,83.333336,,,,,,,,,,,,,,,,,1.000000,0.000000,0.388608,0.519653,-0.462097,0.604492,0.993667,-0.141115,0.035157,-30.505836,-98.695351,1.345846
1649282384.970421,1649282384.996897,5.000000,0.000000,4252.179688,4244.230957,4251.410156,4249.615234,4245.512695,4238.077148,4200.769043,4242.948730,4245.128418,4257.820313,4268.461426,4237.948730,4263.717773,4266.666504,773.000000,1.000000,15.000000,,,,0.000000,4.000000,4.000000,4.000000,4.000000,4.000000,2.000000,4.000000,4.000000,4.000000,4.000000,4.000000,4.000000,4.000000,4.000000,83.333336,,,,,,,,,,,,,,,,,,,,,,,,,,,,
1649282384.978242,1649282385.004723,6.000000,0.000000,4245.641113,4248.717773,4248.974121,4258.461426,4248.974121,4242.179688,4200.384766,4246.410156,4255.897461,4266.282227,4253.717773,4232.051270,4266.538574,4255.897461,3639.000000,1.000000,15.000000,,,,0.000000,4.000000,4.000000,4.000000,4.000000,4.000000,2.000000,4.000000,4.000000,4.000000,4.000000,4.000000,4.000000,4.000000,4.000000,83.333336,,,,,,,,,,,,,,,,,,,,,,,,,,,,
1649282384.986063,1649282385.012448,7.000000,0.000000,4241.153809,4245.128418,4245.769043,4258.974121,4245.256348,4246.282227,4203.461426,4236.666504,4252.179688,4250.256348,4245.641113,4229.230957,4261.025879,4246.410156,3575.000000,1.000000,15.000000,,,,0.000000,4.000000,4.000000,4.000000,4.000000,4.000000,2.000000,4.000000,4.000000,4.000000,4.000000,4.000000,4.000000,4.000000,4.000000,83.333336,1.000000,41.666668,4.000000,4.000000,4.000000,4.000000,4.000000,1.000000,3.000000,4.000000,4.000000,1.000000,4.000000,4.000000,4.000000,4.000000,,,,,,,,,,,,
1649282384.993884,1649282385.020274,8.000000,0.000000,4241.410156,4233.974121,4245.384766,4244.743652,4238.461426,4245.256348,4200.897461,4231.410156,4244.230957,4234.871582,4248.974121,4229.358887,4242.436035,4246.153809,3529.000000,1.000000,15.000000,,,,0.000000,4.000000,4.000000,4.000000,4.000000,4.000000,2.000000,4.000000,4.000000,4.000000,4.000000,4.000000,4.000000,4.000000,4.000000,83.333336,,,,,,,,,,,,,,,,,2.000000,0.000000,0.387607,0.520569,-0.460144,0.605835,1.006363,-0.129397,0.035645,-28.711376,-98.545815,0.897231
1649282385.001705,1649282385.028000,9.000000,0.000000,4247.179688,4235.769043,4248.333496,4247.692383,4242.563965,4244.487305,4194.358887,4230.128418,4246.410156,4256.282227,4250.000000,4231.025879,4246.025879,4252.692383,3618.000000,1.000000,15.000000,,,,0.000000,4.000000,4.000000,4.000000,4.000000,4.000000,2.000000,4.000000,4.000000,4.000000,4.000000,4.000000,4.000000,4.000000,4.000000,83.333336,,,,,,,,,,,,,,,,,,,,,,,,,,,,
1649282385.009526,1649282385.035825,10.000000,0.000000,4256.922852,4256.666504,4257.307617,4265.256348,4247.179688,4246.666504,4204.358887,4234.102539,4262.051270,4272.179688,4255.641113,4242.948730,4276.538574,4262.948730,3626.000000,1.000000,15.000000,,,,0.000000,4.000000,4.000000,4.000000,4.000000,4.000000,2.000000,4.000000,4.000000,4.000000,4.000000,4.000000,4.000000,4.000000,4.000000,83.333336,,,,,,,,,,,,,,,,,,,,,,,,,,,,
1649282385.017347,1649282385.043651,11.000000,0.000000,4267.051270,4272.820313,4272.436035,4273.717773,4248.717773,4246.410156,4220.000000,4249.615234,4265.384766,4265.641113,4275.512695,4262.051270,4290.641113,4273.205078,3292.000000,1.000000,15.000000,,,,0.000000,4.000000,4.000000,4.000000,4.000000,4.000000,2.000000,4.000000,4.000000,4.000000,4.000000,4.000000,4.000000,4.000000,4.000000,83.333336,,,,,,,,,,,,,,,,,,,,,,,,,,,,
1649282385.025169,1649282385.051377,12.000000,0.000000,4267.948730,4253.846191,4272.692383,4263.974121,4257.563965,4246.153809,4206.538574,4243.205078,4240.128418,4267.820313,4277.179688,4260.256348,4273.974121,4275.512695,3551.000000,1.000000,15.000000,,,,0.000000,4.000000,4.000000,4.000000,4.000000,4.000000,2.000000,4.000000,4.000000,4.000000,4.000000,4.000000,4.000000,4.000000,4.000000,83.333336,,,,,,,,,,,,,,,,,3.000000,0.000000,0.386449,0.521606,-0.458008,0.607300,1.004410,-0.145510,0.031739,-30.356298,-98.844894,1.196307
1649282385.032990,1649282385.059302,13.000000,0.000000,4250.769043,4228.205078,4253.077148,4248.205078,4256.153809,4245.256348,4179.102539,4210.769043,4227.307617,4256.794922,4251.410156,4236.410156,4253.974121,4261.538574,3455.000000,1.000000,15.000000,,,,0.000000,4.000000,4.000000,4.000000,4.000000,4.000000,2.000000,4.000000,4.000000,4.000000,4.000000,4.000000,4.000000,4.000000,4.000000,83.333336,,,,,,,,,,,,,,,,,,,,,,,,,,,,
1649282385.040811,1649282385.067128,14.000000,0.000000,4248.205078,4255.384766,4250.128418,4264.487305,4244.358887,4244.615234,4188.461426,4216.282227,4257.179688,4238.077148,4250.769043,4234.871582,4267.948730,4260.641113,3626.000000,1.000000,15.000000,,,,0.000000,4.000000,4.000000,4.000000,4.000000,4.000000,2.000000,4.000000,4.000000,4.000000,4.000000,4.000000,4.000000,4.000000,4.000000,83.333336,,,,,,,,,,,,,,,,,,,,,,,,,,,,
1649282385.048632,1649282385.074953,15.000000,0.000000,4268.717773,4291.922852,4269.487305,4290.512695,4238.205078,4246.025879,4218.717773,4254.230957,4285.000000,4261.794922,4279.230957,4256.538574,4292.436035,4279.743652,3292.000000,1.000000,15.000000,,,,0.000000,4.000000,4.000000,4.000000,4.000000,4.000000,2.000000,4.000000,4.000000,4.000000,4.000000,4.000000,4.000000,4.000000,4.000000,83.333336,,,,,,,,,,,,,,,,,,,,,,,,,,,,
1649282385.056453,1649282385.082679,16.000000,0.000000,4264.743652,4257.051270,4266.282227,4264.871582,4248.205078,4246.666504,4223.717773,4256.922852,4275.897461,4286.922852,4273.589844,4251.666504,4278.974121,4270.000000,0.000000,1.000000,15.000000,,,,0.000000,4.000000,4.000000,4.000000,4.000000,4.000000,2.000000,4.000000,4.000000,4.000000,4.000000,4.000000,4.000000,4.000000,4.000000,83.333336,,,,,,,,,,,,,,,,,4.000000,0.000000,0.385590,0.522156,-0.456970,0.608154,0.995621,-0.161624,0.047852,-28.412298,-98.844894,1.196307
1649282385.064274,1649282385.090605,17.000000,0.000000,4240.769043,4218.461426,4244.487305,4230.512695,4261.025879,4245.000000,4214.743652,4244.871582,4259.615234,4273.205078,4241.282227,4228.974121,4256.666504,4240.512695,0.000000,1.000000,15.000000,,,,0.000000,4.000000,4.000000,4.000000,4.000000,4.000000,2.000000,4.000000,4.000000,4.000000,4.000000,4.000000,4.000000,4.000000,4.000000,83.333336,,,,,,,,,,,,,,,,,,,,,,,,,,,,
1649282385.072095,1649282385.098430,18.000000,0.000000,4242.307617,4256.282227,4249.871582,4257.692383,4245.769043,4242.051270,4211.922852,4248.589844,4252.948730,4249.615234,4238.205078,4232.051270,4263.205078,4246.153809,0.000000,1.000000,15.000000,,,,0.000000,4.000000,4.000000,4.000000,4.000000,4.000000,2.000000,4.000000,4.000000,4.000000,4.000000,4.000000,4.000000,4.000000,4.000000,83.333336,,,,,,,,,,,,,,,,,,,,,,,,,,,,
1649282385.079916,1649282385.106256,19.000000,0.000000,4260.128418,4287.179688,4267.051270,4291.794922,4232.436035,4244.102539,4205.256348,4238.717773,4246.025879,4235.897461,4249.615234,4246.922852,4260.000000,4266.538574,0.000000,1.000000,15.000000,,,,0.000000,4.000000,4.000000,4.000000,4.000000,4.000000,2.000000,4.000000,4.000000,4.000000,4.000000,4.000000,4.000000,4.000000,4.000000,83.333336,,,,,,,,,,,,,,,,,,,,,,,,,,,,
1649282385.087737,1649282385.113982,20.000000,0.000000,4265.897461,4263.846191,4268.077148,4282.051270,4256.025879,4247.307617,4197.692383,4223.846191,4246.538574,4242.563965,4245.769043,4244.358887,4228.974121,4267.179688,0.000000,1.000000,15.000000,,,,0.000000,4.000000,4.000000,4.000000,4.000000,4.000000,2.000000,4.000000,4.000000,4.000000,4.000000,4.000000,4.000000,4.000000,4.000000,83.333336,,,,,,,,,,,,,,,,,5.000000,0.000000,0.384032,0.523193,-0.454895,0.609802,0.996597,-0.135256,0.045411,-29.159990,-98.844894,0.448615
1649282385.095558,1649282385.121907,21.000000,0.000000,4262.307617,4258.846191,4264.871582,4269.743652,4272.307617,4245.512695,4202.179688,4222.820313,4248.974121,4244.871582,4237.692383,4235.256348,4213.077148,4261.410156,0.000000,1.000000,15.000000,,,,0.000000,4.000000,4.000000,4.000000,4.000000,4.000000,2.000000,4.000000,4.000000,4.000000,4.000000,4.000000,4.000000,4.000000,4.000000,83.333336,,,,,,,,,,,,,,,,,,,,,,,,,,,,
1649282385.103379,1649282385.129733,22.000000,0.000000,4249.743652,4276.025879,4257.948730,4272.051270,4252.179688,4243.461426,4203.589844,4218.333496,4234.615234,4215.128418,4230.256348,4227.948730,4214.871582,4254.102539,0.000000,1.000000,15.000000,,,,0.000000,4.000000,4.000000,4.000000,4.000000,4.000000,2.000000,4.000000,4.000000,4.000000,4.000000,4.000000,4.000000,4.000000,4.000000,83.333336,,,,,,,,,,,,,,,,,,,,,,,,,,,,
1649282385.111200,1649282385.137558,23.000000,0.000000,4245.128418,4269.358887,4255.128418,4274.871582,4232.563965,4244.871582,4202.179688,4219.871582,4230.897461,4217.307617,4230.256348,4226.410156,4221.410156,4246.666504,0.000000,1.000000,15.000000,,,,0.000000,4.000000,4.000000,4.000000,4.000000,4.000000,2.000000,4.000000,4.000000,4.000000,4.000000,4.000000,4.000000,4.000000,4.000000,83.333336,,,,,,,,,,,,,,,,,,,,,,,,,,,,
1649282385.119021,1649282385.145284,24.000000,0.000000,4260.512695,4259.871582,4265.769043,4281.410156,4233.974121,4245.384766,4206.666504,4235.641113,4252.563965,4260.641113,4242.820313,4235.256348,4230.512695,4251.538574,0.000000,1.000000,15.000000,,,,0.000000,4.000000,4.000000,4.000000,4.000000,4.000000,2.000000,4.000000,4.000000,4.000000,4.000000,4.000000,4.000000,4.000000,4.000000,83.333336,,,,,,,,,,,,,,,,,6.000000,0.000000,0.382034,0.524231,-0.453003,0.611572,0.992691,-0.158206,0.044434,-30.804913,-99.592583,-0.897231
1649282385.126842,1649282385.153209,25.000000,0.000000,4260.000000,4264.615234,4263.974121,4279.230957,4250.128418,4245.641113,4197.436035,4231.282227,4249.102539,4238.846191,4243.077148,4231.538574,4224.487305,4249.743652,0.000000,1.000000,15.000000,,,,0.000000,4.000000,4.000000,4.000000,4.000000,4.000000,2.000000,4.000000,4.000000,4.000000,4.000000,4.000000,4.000000,4.000000,4.000000,83.333336,,,,,,,,,,,,,,,,,,,,,,,,,,,,
1649282385.134663,1649282385.161035,26.000000,0.000000,4244.871582,4271.153809,4251.538574,4270.384766,4270.897461,4245.897461,4186.794922,4229.871582,4232.948730,4210.641113,4230.897461,4220.256348,4211.922852,4244.615234,0.000000,1.000000,15.000000,,,,0.000000,4.000000,4.000000,4.000000,4.000000,4.000000,2.000000,4.000000,4.000000,4.000000,4.000000,4.000000,4.000000,4.000000,4.000000,83.333336,,,,,,,,,,,,,,,,,,,,,,,,,,,,
1649282385.142485,1649282385.168861,27.000000,0.000000,4252.307617,4271.025879,4257.820313,4274.615234,4266.666504,4243.717773,4204.871582,4257.307617,4250.128418,4261.025879,4237.563965,4227.820313,4213.333496,4256.666504,0.000000,1.000000,15.000000,,,,0.000000,4.000000,4.000000,4.000000,4.000000,4.000000,2.000000,4.000000,4.000000,4.000000,4.000000,4.000000,4.000000,4.000000,4.000000,83.333336,,,,,,,,,,,,,,,,,,,,,,,,,,,,
1649282385.150306,1649282385.176586,28.000000,0.000000,4263.846191,4270.512695,4268.717773,4282.436035,4243.077148,4244.358887,4225.897461,4265.128418,4271.025879,4289.230957,4257.051270,4240.769043,4229.358887,4262.948730,0.000000,1.000000,15.000000,,,,0.000000,4.000000,4.000000,4.000000,4.000000,4.000000,2.000000,4.000000,4.000000,4.000000,4.000000,4.000000,4.000000,4.000000,4.000000,83.333336,,,,,,,,,,,,,,,,,7.000000,0.000000,0.380396,0.525146,-0.451172,0.613159,1.012711,-0.161135,0.028809,-29.010452,-99.143967,-1.046769
1649282385.158127,1649282385.184512,29.000000,0.000000,4253.461426,4271.794922,4260.256348,4281.410156,4241.153809,4247.692383,4223.333496,4251.282227,4270.384766,4261.410156,4252.820313,4238.846191,4246.153809,4253.205078,0.000000,1.000000,15.000000,,,,0.000000,4.000000,4.000000,4.000000,4.000000,4.000000,2.000000,4.000000,4.000000,4.000000,4.000000,4.000000,4.000000,4.000000,4.000000,83.333336,,,,,,,,,,,,,,,,,,,,,,,,,,,,
1649282385.165948,1649282385.192338,30.000000,0.000000,4238.846191,4273.205078,4247.563965,4275.256348,4260.384766,4246.794922,4213.589844,4247.051270,4261.666504,4238.846191,4234.615234,4227.179688,4240.512695,4243.205078,0.000000,1.000000,15.000000,,,,0.000000,4.000000,4.000000,4.000000,4.000000,4.000000,2.000000,4.000000,4.000000,4.000000,4.000000,4.000000,4.000000,4.000000,4.000000,83.333336,,,,,,,,,,,,,,,,,,,,,,,,,,,,
1649282385.173769,1649282385.200263,31.000000,0.000000,4238.974121,4267.051270,4243.077148,4268.589844,4272.820313,4244.487305,4210.128418,4244.487305,4243.974121,4237.692383,4223.205078,4215.128418,4215.641113,4232.692383,0.000000,1.000000,15.000000,,,,0.000000,4.000000,4.000000,4.000000,4.000000,4.000000,2.000000,4.000000,4.000000,4.000000,4.000000,4.000000,4.000000,4.000000,4.000000,83.333336,,,,,,,,,,,,,,,,,,,,,,,,,,,,
1649282385.181590,1649282385.208189,32.000000,0.000000,4244.358887,4245.897461,4245.128418,4260.641113,4261.282227,4244.743652,4218.333496,4242.692383,4233.333496,4247.051270,4224.615234,4212.563965,4205.512695,4227.820313,0.000000,1.000000,15.000000,,,,0.000000,4.000000,4.000000,4.000000,4.000000,4.000000,2.000000,4.000000,4.000000,4.000000,4.000000,4.000000,4.000000,4.000000,4.000000,83.333336,,,,,,,,,,,,,,,,,8.000000,0.000000,0.378916,0.526306,-0.449402,0.614380,1.001480,-0.156741,0.061524,-29.010452,-99.143967,0.598154
1649282385.189411,1649282385.216014,33.000000,0.000000,4249.487305,4236.922852,4254.358887,4260.512695,4246.538574,4246.666504,4235.128418,4248.717773,4246.153809,4247.563965,4244.743652,4226.538574,4222.436035,4239.871582,0.000000,1.000000,15.000000,,,,0.000000,4.000000,4.000000,4.000000,4.000000,4.000000,2.000000,4.000000,4.000000,4.000000,4.000000,4.000000,4.000000,4.000000,4.000000,83.333336,,,,,,,,,,,,,,,,,,,,,,,,,,,,
1649282385.197232,1649282385.223840,34.000000,0.000000,4254.871582,4258.333496,4261.922852,4272.563965,4245.000000,4247.948730,4246.410156,4248.717773,4253.974121,4243.589844,4250.000000,4236.922852,4237.820313,4250.000000,0.000000,1.000000,15.000000,,,,0.000000,4.000000,4.000000,4.000000,4.000000,4.000000,2.000000,4.000000,4.000000,4.000000,4.000000,4.000000,4.000000,4.000000,4.000000,83.333336,,,,,,,,,,,,,,,,,,,,,,,,,,,,
1649282385.205053,1649282385.231665,35.000000,0.000000,4258.974121,4283.717773,4261.538574,4284.102539,4249.230957,4247.563965,4248.077148,4244.871582,4247.051270,4254.743652,4228.846191,4231.922852,4234.230957,4243.461426,0.000000,1.000000,15.000000,,,,0.000000,4.000000,4.000000,4.000000,4.000000,4.000000,2.000000,4.000000,4.000000,4.000000,4.000000,4.000000,4.000000,4.000000,4.000000,83.333336,,,,,,,,,,,,,,,,,,,,,,,,,,,,
1649282385.212874,1649282385.239491,36.000000,0.000000,4263.333496,4282.692383,4262.820313,4287.948730,4257.436035,4245.897461,4242.051270,4250.128418,4248.077148,4257.820313,4229.615234,4234.358887,4225.000000,4246.282227,0.000000,1.000000,15.000000,,,,0.000000,4.000000,4.000000,4.000000,4.000000,4.000000,2.000000,4.000000,4.000000,4.000000,4.000000,4.000000,4.000000,4.000000,4.000000,83.333336,,,,,,,,,,,,,,,,,9.000000,0.000000,0.377561,0.527283,-0.448059,0.615356,0.982925,-0.175784,0.043946,-29.907682,-98.844894,-0.149538
1649282385.220695,1649282385.247317,37.000000,0.000000,4264.487305,4259.230957,4267.307617,4277.692383,4258.846191,4245.256348,4230.512695,4249.230957,4250.256348,4241.922852,4246.282227,4245.000000,4224.615234,4259.230957,0.000000,1.000000,15.000000,,,,0.000000,4.000000,4.000000,4.000000,4.000000,4.000000,2.000000,4.000000,4.000000,4.000000,4.000000,4.000000,4.000000,4.000000,4.000000,83.333336,,,,,,,,,,,,,,,,,,,,,,,,,,,,
1649282385.228516,1649282385.255142,38.000000,0.000000,4262.179688,4249.102539,4265.512695,4264.230957,4255.000000,4246.153809,4223.589844,4241.794922,4244.487305,4244.102539,4239.615234,4243.974121,4228.974121,4259.230957,0.000000,1.000000,15.000000,,,,0.000000,4.000000,4.000000,4.000000,4.000000,4.000000,2.000000,4.000000,4.000000,4.000000,4.000000,4.000000,4.000000,4.000000,4.000000,83.333336,,,,,,,,,,,,,,,,,,,,,,,,,,,,
1649282385.236338,1649282385.262968,39.000000,0.000000,4260.000000,4270.512695,4261.666504,4272.948730,4247.692383,4247.051270,4231.410156,4248.974121,4244.615234,4250.769043,4237.179688,4236.538574,4229.487305,4255.384766,0.000000,1.000000,15.000000,,,,0.000000,4.000000,4.000000,4.000000,4.000000,4.000000,2.000000,4.000000,4.000000,4.000000,4.000000,4.000000,4.000000,4.000000,4.000000,83.333336,,,,,,,,,,,,,,,,,,,,,,,,,,,,
1649282385.244159,1649282385.270793,40.000000,0.000000,4263.077148,4291.282227,4264.358887,4292.948730,4240.384766,4247.563965,4236.410156,4260.512695,4249.743652,4247.179688,4246.025879,4239.743652,4236.538574,4256.025879,0.000000,1.000000,15.000000,,,,0.000000,4.000000,4.000000,4.000000,4.000000,4.000000,2.000000,4.000000,4.000000,4.000000,4.000000,4.000000,4.000000,4.000000,4.000000,83.333336,,,,,,,,,,,,,,,,,10.000000,0.000000,0.376656,0.527832,-0.447083,0.616150,0.995132,-0.165530,0.046387,-30.206760,-97.947662,-0.299077
1649282385.251980,1649282385.278619,41.000000,0.000000,4266.410156,4275.897461,4267.179688,4289.358887,4250.256348,4247.051270,4225.384766,4247.948730,4244.102539,4252.051270,4239.743652,4244.102539,4246.794922,4251.666504,0.000000,1.000000,15.000000,,,,0.000000,4.000000,4.000000,4.000000,4.000000,4.000000,2.000000,4.000000,4.000000,4.000000,4.000000,4.000000,4.000000,4.000000,4.000000,83.333336,,,,,,,,,,,,,,,,,,,,,,,,,,,,
1649282385.259801,1649282385.286445,42.000000,0.000000,4266.153809,4255.256348,4271.794922,4274.615234,4257.692383,4245.512695,4214.487305,4229.102539,4226.922852,4252.179688,4238.717773,4244.358887,4235.641113,4248.461426,0.000000,1.000000,15.000000,,,,0.000000,4.000000,4.000000,4.000000,4.000000,4.000000,2.000000,4.000000,4.000000,4.000000,4.000000,4.000000,4.000000,4.000000,4.000000,83.333336,,,,,,,,,,,,,,,,,,,,,,,,,,,,
1649282385.267622,1649282385.294170,43.000000,0.000000,4268.461426,4259.743652,4277.563965,4275.128418,4249.871582,4244.102539,4215.769043,4230.256348,4217.692383,4235.256348,4241.025879,4245.512695,4213.333496,4248.717773,0.000000,1.000000,15.000000,,,,0.000000,4.000000,4.000000,4.000000,4.000000,4.000000,2.000000,4.000000,4.000000,4.000000,4.000000,4.000000,4.000000,4.000000,4.000000,83.333336,,,,,,,,,,,,,,,,,,,,,,,,,,,,
1649282385.275443,1649282385.302096,44.000000,0.000000,4270.512695,4272.563965,4277.307617,4280.641113,4250.769043,4245.128418,4219.230957,4232.051270,4223.717773,4225.384766,4228.077148,4242.820313,4214.743652,4246.153809,0.000000,1.000000,15.000000,,,,0.000000,4.000000,4.000000,4.000000,4.000000,4.000000,2.000000,4.000000,4.000000,4.000000,4.000000,4.000000,4.000000,4.000000,4.000000,83.333336,,,,,,,,,,,,,,,,,11.000000,0.000000,0.375838,0.528381,-0.446533,0.616577,0.992203,-0.177249,0.052247,-29.907682,-99.293510,0.448615
1649282385.283264,1649282385.309922,45.000000,0.000000,4282.179688,4291.153809,4286.153809,4296.538574,4266.666504,4247.436035,4212.307617,4229.615234,4237.436035,4246.025879,4232.179688,4244.487305,4243.846191,4253.717773,0.000000,1.000000,15.000000,,,,0.000000,4.000000,4.000000,4.000000,4.000000,4.000000,2.000000,4.000000,4.000000,4.000000,4.000000,4.000000,4.000000,4.000000,4.000000,83.333336,,,,,,,,,,,,,,,,,,,,,,,,,,,,
1649282385.291085,1649282385.317747,46.000000,0.000000,4296.538574,4301.538574,4299.358887,4309.102539,4269.743652,4247.179688,4203.077148,4239.358887,4247.692383,4268.077148,4250.384766,4253.333496,4259.871582,4269.871582,0.000000,1.000000,15.000000,,,,0.000000,4.000000,4.000000,4.000000,4.000000,4.000000,2.000000,4.000000,4.000000,4.000000,4.000000,4.000000,4.000000,4.000000,4.000000,83.333336,,,,,,,,,,,,,,,,,,,,,,,,,,,,
1649282385.298906,1649282385.325473,47.000000,0.000000,4288.077148,4283.717773,4289.615234,4289.615234,4259.743652,4245.641113,4199.871582,4246.282227,4248.333496,4258.589844,4243.846191,4248.717773,4244.230957,4265.384766,0.000000,1.000000,15.000000,,,,0.000000,4.000000,4.000000,4.000000,4.000000,4.000000,2.000000,4.000000,4.000000,4.000000,4.000000,4.000000,4.000000,4.000000,4.000000,83.333336,,,,,,,,,,,,,,,,,,,,,,,,,,,,
1649282385.306727,1649282385.333398,48.000000,0.000000,4260.641113,4261.538574,4262.692383,4265.000000,4260.769043,4245.256348,4194.743652,4239.102539,4245.641113,4244.743652,4232.051270,4232.563965,4223.205078,4249.743652,0.000000,1.000000,15.000000,,,,0.000000,4.000000,4.000000,4.000000,4.000000,4.000000,2.000000,4.000000,4.000000,4.000000,4.000000,4.000000,4.000000,4.000000,4.000000,83.333336,,,,,,,,,,,,,,,,,12.000000,0.000000,0.375580,0.528564,-0.446533,0.616577,0.997574,-0.165042,0.043458,-29.758144,-97.947662,-1.046769
1649282385.314548,1649282385.341324,49.000000,0.000000,4240.128418,4254.230957,4246.025879,4259.871582,4258.974121,4245.769043,4184.743652,4233.589844,4246.794922,4245.897461,4230.641113,4223.077148,4227.051270,4242.436035,0.000000,1.000000,15.000000,,,,0.000000,4.000000,4.000000,4.000000,4.000000,4.000000,2.000000,4.000000,4.000000,4.000000,4.000000,4.000000,4.000000,4.000000,4.000000,83.333336,,,,,,,,,,,,,,,,,,,,,,,,,,,,
1649282385.322369,1649282385.349150,50.000000,0.000000,4239.358887,4257.563965,4244.487305,4265.384766,4247.179688,4246.153809,4181.666504,4231.794922,4248.717773,4248.974121,4233.333496,4226.538574,4247.179688,4242.820313,0.000000,1.000000,15.000000,,,,0.000000,4.000000,4.000000,4.000000,4.000000,4.000000,2.000000,4.000000,4.000000,4.000000,4.000000,4.000000,4.000000,4.000000,4.000000,83.333336,,,,,,,,,,,,,,,,,,,,,,,,,,,,
1649282385.330190,1649282385.356975,51.000000,0.000000,4246.538574,4269.743652,4246.538574,4274.487305,4248.846191,4246.666504,4193.077148,4233.589844,4247.820313,4246.666504,4240.384766,4233.461426,4243.589844,4248.077148,0.000000,1.000000,15.000000,,,,0.000000,4.000000,4.000000,4.000000,4.000000,4.000000,2.000000,4.000000,4.000000,4.000000,4.000000,4.000000,4.000000,4.000000,4.000000,83.333336,,,,,,,,,,,,,,,,,,,,,,,,,,,,
1649282385.338011,1649282385.364901,52.000000,0.000000,4248.461426,4274.358887,4247.563965,4279.230957,4264.487305,4246.794922,4201.538574,4239.743652,4248.846191,4237.820313,4240.384766,4234.102539,4225.384766,4250.384766,0.000000,1.000000,15.000000,,,,0.000000,4.000000,4.000000,4.000000,4.000000,4.000000,2.000000,4.000000,4.000000,4.000000,4.000000,4.000000,4.000000,4.000000,4.000000,83.333336,,,,,,,,,,,,,,,,,13.000000,0.000000,0.375549,0.528625,-0.446655,0.616455,0.998062,-0.156252,0.036133,-29.907682,-98.545815,-1.943999
1649282385.345832,1649282385.372726,53.000000,0.000000,4244.871582,4275.512695,4246.538574,4276.794922,4271.538574,4246.922852,4199.743652,4234.615234,4245.000000,4231.410156,4230.000000,4227.820313,4226.410156,4246.922852,0.000000,1.000000,15.000000,,,,0.000000,4.000000,4.000000,4.000000,4.000000,4.000000,2.000000,4.000000,4.000000,4.000000,4.000000,4.000000,4.000000,4.000000,4.000000,83.333336,,,,,,,,,,,,,,,,,,,,,,,,,,,,
1649282385.353654,1649282385.380552,54.000000,0.000000,4246.922852,4282.179688,4246.282227,4279.230957,4261.794922,4245.000000,4197.563965,4223.589844,4232.820313,4231.538574,4225.384766,4224.487305,4225.641113,4244.743652,0.000000,1.000000,15.000000,,,,0.000000,4.000000,4.000000,4.000000,4.000000,4.000000,2.000000,4.000000,4.000000,4.000000,4.000000,4.000000,4.000000,4.000000,4.000000,83.333336,,,,,,,,,,,,,,,,,,,,,,,,,,,,
1649282385.361475,1649282385.388278,55.000000,0.000000,4257.051270,4276.410156,4255.256348,4285.769043,4247.563965,4241.794922,4200.000000,4227.307617,4229.871582,4235.897461,4231.282227,4230.256348,4216.794922,4247.948730,0.000000,1.000000,15.000000,,,,0.000000,4.000000,4.000000,4.000000,4.000000,4.000000,2.000000,4.000000,4.000000,4.000000,4.000000,4.000000,4.000000,4.000000,4.000000,83.333336,,,,,,,,,,,,,,,,,,,,,,,,,,,,
1649282385.369296,1649282385.396203,56.000000,0.000000,4260.000000,4263.077148,4261.410156,4280.384766,4244.487305,4242.820313,4205.384766,4230.512695,4236.538574,4244.102539,4234.743652,4234.230957,4221.538574,4251.282227,0.000000,1.000000,15.000000,,,,0.000000,4.000000,4.000000,4.000000,4.000000,4.000000,2.000000,4.000000,4.000000,4.000000,4.000000,4.000000,4.000000,4.000000,4.000000,83.333336,,,,,,,,,,,,,,,,,14.000000,0.000000,0.375703,0.528931,-0.446838,0.615967,0.992691,-0.139162,0.038087,-29.907682,-98.097198,-0.149538
1649282385.377117,1649282385.404029,57.000000,0.000000,4257.051270,4276.282227,4255.128418,4277.692383,4262.692383,4245.512695,4200.641113,4228.077148,4243.461426,4251.153809,4235.000000,4232.307617,4237.692383,4248.974121,0.000000,1.000000,15.000000,,,,0.000000,4.000000,4.000000,4.000000,4.000000,4.000000,2.000000,4.000000,4.000000,4.000000,4.000000,4.000000,4.000000,4.000000,4.000000,83.333336,,,,,,,,,,,,,,,,,,,,,,,,,,,,
1649282385.384938,1649282385.411854,58.000000,0.000000,4255.512695,4302.692383,4253.717773,4289.871582,4278.589844,4246.538574,4195.769043,4236.922852,4250.256348,4246.410156,4232.436035,4233.077148,4257.179688,4244.871582,0.000000,1.000000,15.000000,,,,0.000000,4.000000,4.000000,4.000000,4.000000,4.000000,2.000000,4.000000,4.000000,4.000000,4.000000,4.000000,4.000000,4.000000,4.000000,83.333336,,,,,,,,,,,,,,,,,,,,,,,,,,,,
1649282385.392759,1649282385.419580,59.000000,0.000000,4257.692383,4286.538574,4262.820313,4290.384766,4268.205078,4247.692383,4207.563965,4244.487305,4251.410156,4238.717773,4237.051270,4238.205078,4252.563965,4247.307617,0.000000,1.000000,15.000000,,,,0.000000,4.000000,4.000000,4.000000,4.000000,4.000000,2.000000,4.000000,4.000000,4.000000,4.000000,4.000000,4.000000,4.000000,4.000000,83.333336,,,,,,,,,,,,,,,,,,,,,,,,,,,,
1649282385.400580,1649282385.427306,60.000000,0.000000,4249.743652,4243.333496,4254.102539,4265.512695,4255.384766,4247.436035,4209.743652,4234.230957,4244.615234,4234.230957,4238.461426,4233.205078,4207.051270,4247.820313,0.000000,1.000000,15.000000,,,,0.000000,4.000000,4.000000,4.000000,4.000000,4.000000,2.000000,4.000000,4.000000,4.000000,4.000000,4.000000,4.000000,4.000000,4.000000,83.333336,,,,,,,,,,,,,,,,,15.000000,0.000000,0.375842,0.529297,-0.446960,0.615479,0.992691,-0.143557,0.041993,-29.159990,-97.798126,-1.196307
1649282385.408401,1649282385.435231,61.000000,0.000000,4234.487305,4243.589844,4233.974121,4253.589844,4250.769043,4244.871582,4201.410156,4228.333496,4243.974121,4230.769043,4224.871582,4219.102539,4198.846191,4235.897461,0.000000,1.000000,15.000000,,,,0.000000,4.000000,4.000000,4.000000,4.000000,4.000000,2.000000,4.000000,4.000000,4.000000,4.000000,4.000000,4.000000,4.000000,4.000000,83.333336,,,,,,,,,,,,,,,,,,,,,,,,,,,,
1649282385.416222,1649282385.443057,62.000000,0.000000,4231.025879,4278.333496,4231.153809,4274.230957,4247.820313,4245.000000,4215.512695,4234.487305,4246.922852,4238.461426,4218.205078,4213.077148,4251.153809,4227.307617,0.000000,1.000000,15.000000,,,,0.000000,4.000000,4.000000,4.000000,4.000000,4.000000,2.000000,4.000000,4.000000,4.000000,4.000000,4.000000,4.000000,4.000000,4.000000,83.333336,,,,,,,,,,,,,,,,,,,,,,,,,,,,
1649282385.424043,1649282385.450882,63.000000,0.000000,4235.128418,4279.487305,4236.282227,4283.846191,4252.436035,4247.436035,4235.512695,4228.717773,4244.230957,4243.589844,4221.922852,4216.410156,4267.948730,4233.461426,0.000000,1.000000,15.000000,,,,0.000000,4.000000,4.000000,4.000000,4.000000,4.000000,2.000000,4.000000,4.000000,4.000000,4.000000,4.000000,4.000000,4.000000,4.000000,83.333336,,,,,,,,,,,,,,,,,,,,,,,,,,,,
1649282385.431864,1649282385.458608,64.000000,0.000000,4236.153809,4259.358887,4235.769043,4267.692383,4264.230957,4247.179688,4232.436035,4219.615234,4235.384766,4238.974121,4220.769043,4214.871582,4236.538574,4236.410156,3580.000000,1.000000,15.000000,,,,0.000000,4.000000,4.000000,4.000000,4.000000,4.000000,2.000000,4.000000,4.000000,4.000000,4.000000,4.000000,4.000000,4.000000,4.000000,83.333336,,,,,,,,,,,,,,,,,16.000000,0.000000,0.376044,0.529785,-0.446716,0.615112,1.005386,-0.140139,0.037598,-29.159990,-98.844894,-0.448615
1649282385.439685,1649282385.466534,65.000000,0.000000,4226.282227,4262.563965,4227.051270,4259.230957,4263.077148,4245.384766,4225.769043,4219.487305,4211.410156,4226.025879,4213.974121,4199.743652,4214.102539,4221.666504,3547.000000,1.000000,15.000000,,,,0.000000,4.000000,4.000000,4.000000,4.000000,4.000000,2.000000,4.000000,4.000000,4.000000,4.000000,4.000000,4.000000,4.000000,4.000000,83.333336,,,,,,,,,,,,,,,,,,,,,,,,,,,,
1649282385.447507,1649282385.474359,66.000000,0.000000,4220.000000,4266.538574,4221.025879,4266.025879,4248.205078,4245.769043,4229.487305,4216.282227,4201.794922,4212.563965,4204.743652,4186.282227,4212.948730,4212.563965,3582.000000,1.000000,15.000000,,,,0.000000,4.000000,4.000000,4.000000,4.000000,4.000000,2.000000,4.000000,4.000000,4.000000,4.000000,4.000000,4.000000,4.000000,4.000000,83.333336,,,,,,,,,,,,,,,,,,,,,,,,,,,,
1649282385.455328,1649282385.482185,67.000000,0.000000,4228.461426,4260.128418,4229.230957,4269.487305,4252.307617,4246.153809,4231.025879,4221.666504,4231.666504,4220.641113,4199.743652,4193.333496,4223.589844,4221.410156,3569.000000,1.000000,15.000000,,,,0.000000,4.000000,4.000000,4.000000,4.000000,4.000000,2.000000,4.000000,4.000000,4.000000,4.000000,4.000000,4.000000,4.000000,4.000000,83.333336,,,,,,,,,,,,,,,,,,,,,,,,,,,,
1649282385.463149,1649282385.490011,68.000000,0.000000,4233.589844,4259.102539,4234.230957,4262.563965,4265.512695,4246.794922,4231.666504,4238.717773,4253.974121,4234.487305,4203.717773,4206.794922,4226.538574,4224.358887,3608.000000,1.000000,15.000000,,,,0.000000,4.000000,4.000000,4.000000,4.000000,4.000000,2.000000,4.000000,4.000000,4.000000,4.000000,4.000000,4.000000,4.000000,4.000000,83.333336,,,,,,,,,,,,,,,,,17.000000,0.000000,0.376104,0.530090,-0.446472,0.614990,1.000504,-0.134279,0.052247,-29.608606,-97.798126,-0.448615
1649282385.470970,1649282385.497836,69.000000,0.000000,4233.717773,4260.897461,4234.615234,4264.871582,4251.410156,4248.589844,4234.102539,4247.563965,4250.384766,4230.000000,4216.538574,4213.205078,4224.487305,4221.666504,764.000000,1.000000,15.000000,,,,0.000000,4.000000,4.000000,4.000000,4.000000,4.000000,2.000000,4.000000,4.000000,4.000000,4.000000,4.000000,4.000000,4.000000,4.000000,83.333336,,,,,,,,,,,,,,,,,,,,,,,,,,,,
1649282385.478791,1649282385.505762,70.000000,0.000000,4239.102539,4253.461426,4240.128418,4267.051270,4242.051270,4248.589844,4232.563965,4246.410156,4247.307617,4232.948730,4226.922852,4217.307617,4227.692383,4230.128418,3639.000000,1.000000,15.000000,,,,0.000000,4.000000,4.000000,4.000000,4.000000,4.000000,2.000000,4.000000,4.000000,4.000000,4.000000,4.000000,4.000000,4.000000,4.000000,83.333336,,,,,,,,,,,,,,,,,,,,,,,,,,,,
1649282385.486612,1649282385.513587,71.000000,0.000000,4236.666504,4242.051270,4236.410156,4254.871582,4256.410156,4246.025879,4226.538574,4245.769043,4243.589844,4248.717773,4231.794922,4217.692383,4220.000000,4234.358887,3585.000000,1.000000,15.000000,,,,0.000000,4.000000,4.000000,4.000000,4.000000,4.000000,2.000000,4.000000,4.000000,4.000000,4.000000,4.000000,4.000000,4.000000,4.000000,83.333336,1.000000,50.000000,4.000000,3.000000,4.000000,4.000000,4.000000,0.000000,3.000000,4.000000,4.000000,3.000000,4.000000,4.000000,4.000000,4.000000,,,,,,,,,,,,
1649282385.494433,1649282385.521513,72.000000,0.000000,4228.205078,4250.769043,4228.846191,4255.384766,4252.948730,4245.256348,4225.000000,4246.794922,4250.256348,4245.641113,4235.641113,4221.025879,4221.794922,4234.358887,3534.000000,1.000000,15.000000,,,,0.000000,4.000000,4.000000,4.000000,4.000000,4.000000,2.000000,4.000000,4.000000,4.000000,4.000000,4.000000,4.000000,4.000000,4.000000,83.333336,,,,,,,,,,,,,,,,,18.000000,0.000000,0.376117,0.530273,-0.446411,0.614868,1.003433,-0.153323,0.030762,-31.403067,-97.648582,-1.046769
1649282385.502254,1649282385.529338,73.000000,0.000000,4236.410156,4271.025879,4239.102539,4272.692383,4248.205078,4246.666504,4234.871582,4254.102539,4274.358887,4255.256348,4236.666504,4232.179688,4259.487305,4242.307617,3620.000000,1.000000,15.000000,,,,0.000000,4.000000,4.000000,4.000000,4.000000,4.000000,2.000000,4.000000,4.000000,4.000000,4.000000,4.000000,4.000000,4.000000,4.000000,83.333336,,,,,,,,,,,,,,,,,,,,,,,,,,,,
1649282385.510075,1649282385.537164,74.000000,0.000000,4241.538574,4258.974121,4242.948730,4269.230957,4266.025879,4244.487305,4233.461426,4257.948730,4276.922852,4271.666504,4233.333496,4233.846191,4276.153809,4241.025879,3623.000000,1.000000,15.000000,,,,0.000000,4.000000,4.000000,4.000000,4.000000,4.000000,2.000000,4.000000,4.000000,4.000000,4.000000,4.000000,4.000000,4.000000,4.000000,83.333336,,,,,,,,,,,,,,,,,,,,,,,,,,,,
1649282385.517896,1649282385.545090,75.000000,0.000000,4232.051270,4237.307617,4232.436035,4252.948730,4264.358887,4244.102539,4221.282227,4250.769043,4261.794922,4240.512695,4237.051270,4228.077148,4245.512695,4235.512695,3299.000000,1.000000,15.000000,,,,0.000000,4.000000,4.000000,4.000000,4.000000,4.000000,2.000000,4.000000,4.000000,4.000000,4.000000,4.000000,4.000000,4.000000,4.000000,83.333336,,,,,,,,,,,,,,,,,,,,,,,,,,,,
1649282385.525717,1649282385.553015,76.000000,0.000000,4235.897461,4253.846191,4236.410156,4261.282227,4246.794922,4244.743652,4214.743652,4247.948730,4258.461426,4220.769043,4242.179688,4230.000000,4224.102539,4240.769043,3561.000000,1.000000,15.000000,,,,0.000000,4.000000,4.000000,4.000000,4.000000,4.000000,2.000000,4.000000,4.000000,4.000000,4.000000,4.000000,4.000000,4.000000,4.000000,83.333336,,,,,,,,,,,,,,,,,19.000000,0.000000,0.375968,0.530457,-0.446655,0.614624,0.991226,-0.153811,0.040528,-29.907682,-98.097198,0.149538
1649282385.533538,1649282385.560841,77.000000,0.000000,4247.179688,4272.563965,4247.051270,4271.666504,4246.922852,4239.358887,4207.179688,4245.256348,4253.461426,4258.974121,4232.307617,4232.051270,4239.871582,4239.487305,3462.000000,1.000000,15.000000,,,,0.000000,4.000000,4.000000,4.000000,4.000000,4.000000,2.000000,4.000000,4.000000,4.000000,4.000000,4.000000,4.000000,4.000000,4.000000,83.333336,,,,,,,,,,,,,,,,,,,,,,,,,,,,
1649282385.541359,1649282385.568666,78.000000,0.000000,4246.794922,4263.846191,4246.538574,4264.743652,4251.025879,4238.589844,4199.230957,4236.922852,4246.922852,4273.717773,4227.436035,4230.256348,4267.051270,4234.871582,3623.000000,1.000000,15.000000,,,,0.000000,4.000000,4.000000,4.000000,4.000000,4.000000,2.000000,4.000000,4.000000,4.000000,4.000000,4.000000,4.000000,4.000000,4.000000,83.333336,,,,,,,,,,,,,,,,,,,,,,,,,,,,
1649282385.549180,1649282385.576392,79.000000,0.000000,4246.282227,4252.692383,4247.179688,4261.025879,4245.128418,4245.897461,4202.307617,4234.102539,4246.666504,4236.794922,4241.410156,4233.974121,4265.512695,4243.717773,3299.000000,1.000000,15.000000,,,,0.000000,4.000000,4.000000,4.000000,4.000000,4.000000,2.000000,4.000000,4.000000,4.000000,4.000000,4.000000,4.000000,4.000000,4.000000,83.333336,,,,,,,,,,,,,,,,,,,,,,,,,,,,
1649282385.557001,1649282385.584317,80.000000,0.000000,4252.820313,4255.512695,4254.615234,4265.128418,4245.000000,4247.820313,4206.025879,4232.820313,4246.922852,4224.615234,4247.692383,4238.205078,4247.179688,4249.615234,3561.000000,1.000000,15.000000,,,,0.000000,4.000000,4.000000,4.000000,4.000000,4.000000,2.000000,4.000000,4.000000,4.000000,4.000000,4.000000,4.000000,4.000000,4.000000,83.333336,,,,,,,,,,,,,,,,,20.000000,0.000000,0.375991,0.530396,-0.446960,0.614441,1.006851,-0.144533,0.030274,-30.954453,-99.143967,-1.046769
1649282385.564823,1649282385.592143,81.000000,0.000000,4251.153809,4260.256348,4252.692383,4265.512695,4246.410156,4243.333496,4202.563965,4233.461426,4251.922852,4240.769043,4238.717773,4233.205078,4242.436035,4242.436035,3462.000000,1.000000,15.000000,,,,0.000000,4.000000,4.000000,4.000000,4.000000,4.000000,2.000000,4.000000,4.000000,4.000000,4.000000,4.000000,4.000000,4.000000,4.000000,83.333336,,,,,,,,,,,,,,,,,,,,,,,,,,,,
1649282385.572644,1649282385.599969,82.000000,0.000000,4236.538574,4251.666504,4236.025879,4253.974121,4248.589844,4243.846191,4202.436035,4230.256348,4247.820313,4239.230957,4220.000000,4218.333496,4237.820313,4227.948730,3623.000000,1.000000,15.000000,,,,0.000000,4.000000,4.000000,4.000000,4.000000,4.000000,2.000000,4.000000,4.000000,4.000000,4.000000,4.000000,4.000000,4.000000,4.000000,83.333336,,,,,,,,,,,,,,,,,,,,,,,,,,,,
1649282385.580465,1649282385.607694,83.000000,0.000000,4226.538574,4236.922852,4226.025879,4240.256348,4249.102539,4246.153809,4208.717773,4220.641113,4234.230957,4229.615234,4206.794922,4209.358887,4227.179688,4214.871582,3299.000000,1.000000,15.000000,,,,0.000000,4.000000,4.000000,4.000000,4.000000,4.000000,2.000000,4.000000,4.000000,4.000000,4.000000,4.000000,4.000000,4.000000,4.000000,83.333336,,,,,,,,,,,,,,,,,,,,,,,,,,,,
1649282385.588286,1649282385.615620,84.000000,0.000000,4231.153809,4242.179688,4233.717773,4247.436035,4240.128418,4245.897461,4212.692383,4220.256348,4237.948730,4229.871582,4211.025879,4216.153809,4228.205078,4220.384766,3561.000000,1.000000,15.000000,,,,0.000000,4.000000,4.000000,4.000000,4.000000,4.000000,2.000000,4.000000,4.000000,4.000000,4.000000,4.000000,4.000000,4.000000,4.000000,83.333336,,,,,,,,,,,,,,,,,21.000000,0.000000,0.376013,0.530212,-0.447327,0.614319,0.993667,-0.134768,0.040528,-30.804913,-97.499046,-0.448615
1649282385.596107,1649282385.623446,85.000000,0.000000,4234.102539,4252.692383,4235.512695,4260.512695,4240.641113,4246.153809,4214.230957,4225.769043,4249.230957,4230.897461,4216.666504,4217.563965,4229.615234,4228.846191,3462.000000,1.000000,15.000000,,,,0.000000,4.000000,4.000000,4.000000,4.000000,4.000000,2.000000,4.000000,4.000000,4.000000,4.000000,4.000000,4.000000,4.000000,4.000000,83.333336,,,,,,,,,,,,,,,,,,,,,,,,,,,,
1649282385.603928,1649282385.631271,86.000000,0.000000,4233.077148,4239.871582,4231.282227,4254.871582,4250.512695,4247.436035,4217.948730,4233.717773,4248.974121,4231.025879,4221.282227,4213.589844,4228.461426,4226.922852,3623.000000,1.000000,15.000000,,,,0.000000,4.000000,4.000000,4.000000,4.000000,4.000000,2.000000,4.000000,4.000000,4.000000,4.000000,4.000000,4.000000,4.000000,4.000000,83.333336,,,,,,,,,,,,,,,,,,,,,,,,,,,,
1649282385.611749,1649282385.639197,87.000000,0.000000,4240.256348,4239.487305,4240.256348,4253.974121,4258.974121,4247.820313,4219.230957,4241.666504,4248.077148,4237.692383,4230.000000,4220.769043,4238.205078,4228.461426,3299.000000,1.000000,15.000000,,,,0.000000,4.000000,4.000000,4.000000,4.000000,4.000000,2.000000,4.000000,4.000000,4.000000,4.000000,4.000000,4.000000,4.000000,4.000000,83.333336,,,,,,,,,,,,,,,,,,,,,,,,,,,,
1649282385.619570,1649282385.647022,88.000000,0.000000,4246.922852,4260.512695,4249.615234,4266.282227,4260.641113,4245.897461,4213.333496,4239.487305,4250.256348,4243.846191,4232.820313,4225.256348,4241.282227,4229.615234,3561.000000,1.000000,15.000000,,,,0.000000,4.000000,4.000000,4.000000,4.000000,4.000000,2.000000,4.000000,4.000000,4.000000,4.000000,4.000000,4.000000,4.000000,4.000000,83.333336,,,,,,,,,,,,,,,,,22.000000,0.000000,0.375981,0.530151,-0.447510,0.614258,0.998550,-0.145510,0.047364,-28.561836,-97.947662,-0.299077
1649282385.627391,1649282385.654948,89.000000,0.000000,4246.922852,4266.025879,4248.974121,4269.615234,4250.641113,4245.000000,4214.102539,4231.282227,4249.358887,4231.922852,4230.769043,4224.743652,4231.666504,4231.794922,3462.000000,1.000000,15.000000,,,,0.000000,4.000000,4.000000,4.000000,4.000000,4.000000,2.000000,4.000000,4.000000,4.000000,4.000000,4.000000,4.000000,4.000000,4.000000,83.333336,,,,,,,,,,,,,,,,,,,,,,,,,,,,
1649282385.635212,1649282385.662773,90.000000,0.000000,4247.820313,4253.974121,4248.974121,4267.948730,4242.307617,4246.025879,4218.846191,4231.666504,4249.615234,4213.717773,4233.846191,4231.410156,4229.871582,4241.538574,3623.000000,1.000000,15.000000,,,,0.000000,4.000000,4.000000,4.000000,4.000000,4.000000,2.000000,4.000000,4.000000,4.000000,4.000000,4.000000,4.000000,4.000000,4.000000,83.333336,,,,,,,,,,,,,,,,,,,,,,,,,,,,
1649282385.643033,1649282385.670699,91.000000,0.000000,4252.307617,4242.307617,4252.051270,4262.179688,4248.333496,4245.641113,4214.358887,4241.282227,4249.230957,4223.974121,4234.615234,4233.717773,4236.794922,4244.871582,3299.000000,1.000000,15.000000,,,,0.000000,4.000000,4.000000,4.000000,4.000000,4.000000,2.000000,4.000000,4.000000,4.000000,4.000000,4.000000,4.000000,4.000000,4.000000,83.333336,,,,,,,,,,,,,,,,,,,,,,,,,,,,
1649282385.650854,1649282385.678525,92.000000,0.000000,4246.538574,4239.230957,4248.333496,4250.769043,4254.230957,4243.846191,4209.230957,4245.128418,4247.692383,4252.179688,4229.358887,4225.769043,4243.717773,4233.974121,3561.000000,1.000000,15.000000,,,,0.000000,4.000000,4.000000,4.000000,4.000000,4.000000,2.000000,4.000000,4.000000,4.000000,4.000000,4.000000,4.000000,4.000000,4.000000,83.333336,,,,,,,,,,,,,,,,,23.000000,0.000000,0.376180,0.530029,-0.447571,0.614197,0.989273,-0.135256,0.032227,-31.702145,-97.947662,-0.598154
1649282385.658676,1649282385.686450,93.000000,0.000000,4235.769043,4252.307617,4243.205078,4253.077148,4248.333496,4244.487305,4214.358887,4246.153809,4257.948730,4255.128418,4225.384766,4225.256348,4248.205078,4230.769043,3462.000000,1.000000,15.000000,,,,0.000000,4.000000,4.000000,4.000000,4.000000,4.000000,2.000000,4.000000,4.000000,4.000000,4.000000,4.000000,4.000000,4.000000,4.000000,83.333336,,,,,,,,,,,,,,,,,,,,,,,,,,,,
1649282385.666497,1649282385.694276,94.000000,0.000000,4238.077148,4265.384766,4242.948730,4269.230957,4244.871582,4245.897461,4222.820313,4252.436035,4273.974121,4246.153809,4231.666504,4232.051270,4244.871582,4242.436035,3623.000000,1.000000,15.000000,,,,0.000000,4.000000,4.000000,4.000000,4.000000,4.000000,2.000000,4.000000,4.000000,4.000000,4.000000,4.000000,4.000000,4.000000,4.000000,83.333336,,,,,,,,,,,,,,,,,,,,,,,,,,,,
1649282385.674318,1649282385.702201,95.000000,0.000000,4249.358887,4249.102539,4247.948730,4265.769043,4250.128418,4246.666504,4228.333496,4258.461426,4272.051270,4244.230957,4243.846191,4235.769043,4233.461426,4249.358887,3299.000000,1.000000,15.000000,,,,0.000000,4.000000,4.000000,4.000000,4.000000,4.000000,2.000000,4.000000,4.000000,4.000000,4.000000,4.000000,4.000000,4.000000,4.000000,83.333336,,,,,,,,,,,,,,,,,,,,,,,,,,,,
1649282385.682139,1649282385.710027,96.000000,0.000000,4250.384766,4229.743652,4247.948730,4248.077148,4250.128418,4246.666504,4234.102539,4250.641113,4254.230957,4236.282227,4242.051270,4238.077148,4233.717773,4241.922852,3561.000000,1.000000,15.000000,,,,0.000000,4.000000,4.000000,4.000000,4.000000,4.000000,2.000000,4.000000,4.000000,4.000000,4.000000,4.000000,4.000000,4.000000,4.000000,83.333336,,,,,,,,,,,,,,,,,24.000000,0.000000,0.376366,0.529968,-0.447571,0.614136,1.009293,-0.140139,0.026856,-29.608606,-97.499046,0.149538
1649282385.689960,1649282385.717952,97.000000,0.000000,4237.563965,4233.846191,4237.051270,4247.436035,4235.512695,4245.641113,4234.102539,4233.974121,4244.358887,4230.128418,4226.153809,4228.077148,4241.282227,4228.205078,3462.000000,1.000000,15.000000,,,,0.000000,4.000000,4.000000,4.000000,4.000000,4.000000,2.000000,4.000000,4.000000,4.000000,4.000000,4.000000,4.000000,4.000000,4.000000,83.333336,,,,,,,,,,,,,,,,,,,,,,,,,,,,
1649282385.697781,1649282385.725778,98.000000,0.000000,4232.692383,4240.128418,4234.871582,4258.589844,4231.922852,4245.256348,4232.436035,4228.846191,4246.922852,4234.487305,4223.077148,4214.358887,4237.436035,4228.717773,3623.000000,1.000000,15.000000,,,,0.000000,4.000000,4.000000,4.000000,4.000000,4.000000,2.000000,4.000000,4.000000,4.000000,4.000000,4.000000,4.000000,4.000000,4.000000,83.333336,,,,,,,,,,,,,,,,,,,,,,,,,,,,
1649282385.705602,1649282385.733703,99.000000,0.000000,4245.256348,4243.974121,4246.153809,4263.205078,4255.769043,4247.051270,4245.384766,4235.641113,4247.948730,4233.205078,4240.128418,4224.743652,4232.948730,4244.358887,3299.000000,1.000000,15.000000,,,,0.000000,4.000000,4.000000,4.000000,4.000000,4.000000,2.000000,4.000000,4.000000,4.000000,4.000000,4.000000,4.000000,4.000000,4.000000,83.333336,,,,,,,,,,,,,,,,,,,,,,,,,,,,
1649282385.713423,1649282385.741629,100.000000,0.000000,4251.410156,4249.358887,4253.846191,4264.358887,4263.717773,4247.692383,4265.512695,4247.179688,4250.641113,4232.692383,4246.538574,4238.846191,4236.410156,4245.769043,3561.000000,1.000000,15.000000,,,,0.000000,4.000000,4.000000,4.000000,4.000000,4.000000,2.000000,4.000000,4.000000,4.000000,4.000000,4.000000,4.000000,4.000000,4.000000,83.333336,,,,,,,,,,,,,,,,,25.000000,0.000000,0.376380,0.530029,-0.447571,0.614075,0.996597,-0.149416,0.037110,-30.356298,-98.545815,-0.897231
1649282385.721244,1649282385.749455,101.000000,0.000000,4237.563965,4238.333496,4244.102539,4259.615234,4240.128418,4246.410156,4275.641113,4253.205078,4252.307617,4233.077148,4223.717773,4222.948730,4233.461426,4228.077148,3462.000000,1.000000,15.000000,,,,0.000000,4.000000,4.000000,4.000000,4.000000,4.000000,2.000000,4.000000,4.000000,4.000000,4.000000,4.000000,4.000000,4.000000,4.000000,83.333336,,,,,,,,,,,,,,,,,,,,,,,,,,,,
1649282385.729065,1649282385.757380,102.000000,0.000000,4227.692383,4229.615234,4234.230957,4252.051270,4233.846191,4246.666504,4267.692383,4250.256348,4237.051270,4229.871582,4206.666504,4208.077148,4233.461426,4219.615234,3623.000000,1.000000,15.000000,,,,0.000000,4.000000,4.000000,4.000000,4.000000,4.000000,2.000000,4.000000,4.000000,4.000000,4.000000,4.000000,4.000000,4.000000,4.000000,83.333336,,,,,,,,,,,,,,,,,,,,,,,,,,,,
1649282385.736886,1649282385.765206,103.000000,0.000000,4232.948730,4237.436035,4237.051270,4254.358887,4251.666504,4247.307617,4252.179688,4248.717773,4229.230957,4238.974121,4221.666504,4222.820313,4246.410156,4228.846191,3299.000000,1.000000,15.000000,,,,0.000000,4.000000,4.000000,4.000000,4.000000,4.000000,2.000000,4.000000,4.000000,4.000000,4.000000,4.000000,4.000000,4.000000,4.000000,83.333336,,,,,,,,,,,,,,,,,,,,,,,,,,,,
1649282385.744707,1649282385.773131,104.000000,0.000000,4236.666504,4228.589844,4240.769043,4255.128418,4253.589844,4246.922852,4247.179688,4251.410156,4250.641113,4245.769043,4233.589844,4231.794922,4241.025879,4235.384766,3561.000000,1.000000,15.000000,,,,0.000000,4.000000,4.000000,4.000000,4.000000,4.000000,2.000000,4.000000,4.000000,4.000000,4.000000,4.000000,4.000000,4.000000,4.000000,83.333336,,,,,,,,,,,,,,,,,26.000000,0.000000,0.376519,0.529968,-0.447693,0.613953,1.006851,-0.140139,0.033204,-30.954453,-97.648582,0.000000
1649282385.752528,1649282385.780957,105.000000,0.000000,4231.025879,4208.846191,4233.461426,4240.769043,4245.384766,4248.077148,4244.102539,4247.820313,4264.358887,4228.205078,4219.230957,4218.333496,4208.717773,4231.153809,3462.000000,1.000000,15.000000,,,,0.000000,4.000000,4.000000,4.000000,4.000000,4.000000,2.000000,4.000000,4.000000,4.000000,4.000000,4.000000,4.000000,4.000000,4.000000,83.333336,,,,,,,,,,,,,,,,,,,,,,,,,,,,
1649282385.760349,1649282385.788882,106.000000,0.000000,4226.922852,4223.205078,4227.820313,4241.410156,4249.743652,4247.820313,4232.820313,4241.922852,4256.153809,4224.743652,4210.000000,4210.897461,4203.589844,4228.846191,3623.000000,1.000000,15.000000,,,,0.000000,4.000000,4.000000,4.000000,4.000000,4.000000,2.000000,4.000000,4.000000,4.000000,4.000000,4.000000,4.000000,4.000000,4.000000,83.333336,,,,,,,,,,,,,,,,,,,,,,,,,,,,
1649282385.768170,1649282385.796708,107.000000,0.000000,4235.769043,4248.589844,4239.615234,4262.563965,4252.179688,4245.641113,4228.077148,4249.102539,4260.128418,4243.974121,4213.974121,4218.205078,4229.615234,4230.641113,3299.000000,1.000000,15.000000,,,,0.000000,4.000000,4.000000,4.000000,4.000000,4.000000,2.000000,4.000000,4.000000,4.000000,4.000000,4.000000,4.000000,4.000000,4.000000,83.333336,,,,,,,,,,,,,,,,,,,,,,,,,,,,
1649282385.775992,1649282385.804633,108.000000,0.000000,4246.410156,4251.025879,4249.615234,4271.025879,4243.205078,4245.769043,4231.282227,4257.563965,4268.205078,4235.384766,4220.000000,4226.153809,4245.256348,4232.179688,3561.000000,1.000000,15.000000,,,,0.000000,4.000000,4.000000,4.000000,4.000000,4.000000,2.000000,4.000000,4.000000,4.000000,4.000000,4.000000,4.000000,4.000000,4.000000,83.333336,,,,,,,,,,,,,,,,,27.000000,0.000000,0.376613,0.529785,-0.447998,0.613831,0.993179,-0.155764,0.041993,-30.206760,-98.396278,-0.598154
1649282385.783813,1649282385.812459,109.000000,0.000000,4248.333496,4246.666504,4248.589844,4266.922852,4245.000000,4247.436035,4227.692383,4247.307617,4255.256348,4208.205078,4227.051270,4231.410156,4227.563965,4234.743652,3462.000000,1.000000,15.000000,,,,0.000000,4.000000,4.000000,4.000000,4.000000,4.000000,2.000000,4.000000,4.000000,4.000000,4.000000,4.000000,4.000000,4.000000,4.000000,83.333336,,,,,,,,,,,,,,,,,,,,,,,,,,,,
