title:Eleccion1, start timestamp:1649282178.571814, stop timestamp:1649282252.676100, headset type:EPOCPLUS, headset serial:4A2C0467, headset firmware:633, channels:67, sampling rate:eeg_128;mot_32, samples:9467      , version:2.1, 
Timestamp,EEG.Counter,EEG.Interpolated,EEG.AF3,EEG.F7,EEG.F3,EEG.FC5,EEG.T7,EEG.P7,EEG.O1,EEG.O2,EEG.P8,EEG.T8,EEG.FC6,EEG.F4,EEG.F8,EEG.AF4,EEG.RawCq,EEG.Battery,EEG.BatteryPercent,MarkerIndex,MarkerType,MarkerValueInt,EEG.MarkerHardware,CQ.AF3,CQ.F7,CQ.F3,CQ.FC5,CQ.T7,CQ.P7,CQ.O1,CQ.O2,CQ.P8,CQ.T8,CQ.FC6,CQ.F4,CQ.F8,CQ.AF4,CQ.Overall,EQ.SampleRateQuality,EQ.OVERALL,EQ.AF3,EQ.F7,EQ.F3,EQ.FC5,EQ.T7,EQ.P7,EQ.O1,EQ.O2,EQ.P8,EQ.T8,EQ.FC6,EQ.F4,EQ.F8,EQ.AF4,MOT.CounterMems,MOT.InterpolatedMems,MOT.Q0,MOT.Q1,MOT.Q2,MOT.Q3,MOT.AccX,MOT.AccY,MOT.AccZ,MOT.MagX,MOT.MagY,MOT.MagZ
1649282178.571814,123.000000,0.000000,4245.641113,4261.153809,4236.666504,4258.205078,4247.307617,4247.820313,4224.102539,4239.358887,4221.922852,4242.692383,4199.487305,4226.666504,4197.820313,4235.128418,3262.000000,1.000000,15.000000,,,,0.000000,4.000000,4.000000,4.000000,4.000000,4.000000,4.000000,4.000000,4.000000,4.000000,4.000000,4.000000,4.000000,4.000000,4.000000,100.000000,,,,,,,,,,,,,,,,,,,,,,,,,,,,
1649282178.579740,124.000000,0.000000,4255.897461,4258.205078,4251.410156,4268.077148,4223.846191,4246.922852,4219.487305,4230.000000,4215.897461,4225.384766,4210.769043,4232.692383,4191.922852,4248.333496,3533.000000,1.000000,15.000000,,,,0.000000,4.000000,4.000000,4.000000,4.000000,4.000000,4.000000,4.000000,4.000000,4.000000,4.000000,4.000000,4.000000,4.000000,4.000000,100.000000,,,,,,,,,,,,,,,,,31.000000,0.000000,0.463734,0.512146,-0.462708,0.555481,1.005386,-0.041505,0.048341,-27.365530,-95.405510,1.345846
1649282178.587565,125.000000,0.000000,4253.974121,4280.128418,4250.256348,4267.307617,4256.794922,4247.948730,4215.897461,4233.974121,4235.256348,4236.538574,4207.563965,4232.051270,4211.538574,4243.461426,3495.000000,1.000000,15.000000,,,,0.000000,4.000000,4.000000,4.000000,4.000000,4.000000,4.000000,4.000000,4.000000,4.000000,4.000000,4.000000,4.000000,4.000000,4.000000,100.000000,,,,,,,,,,,,,,,,,,,,,,,,,,,,
1649282178.595391,126.000000,0.000000,4243.205078,4288.589844,4236.410156,4263.589844,4281.922852,4248.077148,4206.666504,4233.333496,4239.743652,4267.307617,4201.666504,4226.922852,4232.179688,4233.717773,3609.000000,1.000000,15.000000,,,,0.000000,4.000000,4.000000,4.000000,4.000000,4.000000,4.000000,4.000000,4.000000,4.000000,4.000000,4.000000,4.000000,4.000000,4.000000,100.000000,,,,,,,,,,,,,,,,,,,,,,,,,,,,
1649282178.603117,127.000000,0.000000,4241.922852,4264.871582,4232.563965,4265.384766,4262.307617,4249.487305,4205.384766,4217.436035,4227.563965,4256.153809,4204.871582,4226.666504,4211.538574,4235.897461,52.000000,1.000000,15.000000,,,,0.000000,4.000000,4.000000,4.000000,4.000000,4.000000,4.000000,4.000000,4.000000,4.000000,4.000000,4.000000,4.000000,4.000000,4.000000,100.000000,,,,,,,,,,,,,,,,,,,,,,,,,,,,
1649282178.611042,0.000000,0.000000,4246.666504,4252.179688,4239.487305,4263.846191,4244.743652,4249.743652,4214.230957,4215.000000,4228.205078,4230.641113,4205.897461,4227.948730,4191.410156,4235.769043,3559.000000,1.000000,15.000000,,,,0.000000,4.000000,4.000000,4.000000,4.000000,4.000000,4.000000,4.000000,4.000000,4.000000,4.000000,4.000000,4.000000,4.000000,4.000000,100.000000,,,,,,,,,,,,,,,,,0.000000,0.000000,0.463697,0.512146,-0.462891,0.555359,1.013687,-0.043458,0.050294,-28.262760,-95.405510,0.299077
1649282178.618868,1.000000,0.000000,4248.205078,4257.563965,4245.256348,4257.179688,4249.743652,4247.436035,4213.717773,4232.948730,4231.538574,4236.666504,4203.333496,4228.846191,4206.666504,4235.000000,3523.000000,1.000000,15.000000,,,,0.000000,4.000000,4.000000,4.000000,4.000000,4.000000,4.000000,4.000000,4.000000,4.000000,4.000000,4.000000,4.000000,4.000000,4.000000,100.000000,,,,,,,,,,,,,,,,,,,,,,,,,,,,
1649282178.626694,2.000000,0.000000,4247.820313,4259.102539,4244.871582,4256.538574,4237.179688,4247.436035,4210.384766,4234.743652,4216.153809,4234.871582,4203.589844,4233.461426,4210.384766,4243.077148,3553.000000,1.000000,15.000000,,,,0.000000,4.000000,4.000000,4.000000,4.000000,4.000000,4.000000,4.000000,4.000000,4.000000,4.000000,4.000000,4.000000,4.000000,4.000000,100.000000,,,,,,,,,,,,,,,,,,,,,,,,,,,,
1649282178.634419,3.000000,0.000000,4245.384766,4263.461426,4236.538574,4264.487305,4225.897461,4247.820313,4216.025879,4209.358887,4200.256348,4228.717773,4205.128418,4232.307617,4200.128418,4242.179688,3566.000000,1.000000,15.000000,,,,0.000000,4.000000,4.000000,4.000000,4.000000,4.000000,4.000000,4.000000,4.000000,4.000000,4.000000,4.000000,4.000000,4.000000,4.000000,100.000000,,,,,,,,,,,,,,,,,,,,,,,,,,,,
1649282178.642345,4.000000,0.000000,4243.717773,4263.077148,4232.051270,4260.769043,4249.230957,4247.692383,4215.512695,4199.487305,4205.512695,4241.153809,4204.871582,4222.692383,4205.641113,4233.974121,3635.000000,1.000000,15.000000,,,,0.000000,4.000000,4.000000,4.000000,4.000000,4.000000,4.000000,4.000000,4.000000,4.000000,4.000000,4.000000,4.000000,4.000000,4.000000,100.000000,,,,,,,,,,,,,,,,,1.000000,0.000000,0.463661,0.512024,-0.463135,0.555298,1.007828,-0.044434,0.033204,-28.262760,-94.657814,1.345846
1649282178.650170,5.000000,0.000000,4248.333496,4256.538574,4242.436035,4254.615234,4266.922852,4249.615234,4215.384766,4216.282227,4221.410156,4256.282227,4205.128418,4222.948730,4208.589844,4239.230957,1747.000000,1.000000,15.000000,,,,0.000000,4.000000,4.000000,4.000000,4.000000,4.000000,4.000000,4.000000,4.000000,4.000000,4.000000,4.000000,4.000000,4.000000,4.000000,100.000000,,,,,,,,,,,,,,,,,,,,,,,,,,,,
1649282178.657996,6.000000,0.000000,4249.871582,4259.743652,4247.179688,4258.461426,4267.563965,4250.897461,4225.000000,4223.717773,4221.410156,4249.743652,4202.563965,4231.282227,4201.025879,4241.922852,3630.000000,1.000000,15.000000,,,,0.000000,4.000000,4.000000,4.000000,4.000000,4.000000,4.000000,4.000000,4.000000,4.000000,4.000000,4.000000,4.000000,4.000000,4.000000,100.000000,,,,,,,,,,,,,,,,,,,,,,,,,,,,
1649282178.665722,7.000000,0.000000,4239.743652,4261.282227,4233.589844,4251.794922,4266.666504,4248.205078,4228.333496,4213.077148,4208.461426,4210.897461,4200.512695,4226.025879,4199.102539,4230.512695,3550.000000,1.000000,15.000000,,,,0.000000,4.000000,4.000000,4.000000,4.000000,4.000000,4.000000,4.000000,4.000000,4.000000,4.000000,4.000000,4.000000,4.000000,4.000000,100.000000,1.000000,41.666668,4.000000,3.000000,4.000000,4.000000,1.000000,4.000000,4.000000,4.000000,3.000000,1.000000,4.000000,4.000000,3.000000,4.000000,,,,,,,,,,,,
1649282178.673647,8.000000,0.000000,4241.025879,4258.333496,4231.922852,4248.333496,4244.230957,4246.282227,4229.358887,4213.846191,4218.717773,4197.436035,4205.000000,4221.794922,4199.743652,4233.846191,3522.000000,1.000000,15.000000,,,,0.000000,4.000000,4.000000,4.000000,4.000000,4.000000,4.000000,4.000000,4.000000,4.000000,4.000000,4.000000,4.000000,4.000000,4.000000,100.000000,,,,,,,,,,,,,,,,,2.000000,0.000000,0.463747,0.512024,-0.463196,0.555176,1.006851,-0.034668,0.051759,-26.617838,-96.452278,0.299077
1649282178.681473,9.000000,0.000000,4244.230957,4266.153809,4237.948730,4264.487305,4232.051270,4249.102539,4231.025879,4220.384766,4238.077148,4238.589844,4197.948730,4222.179688,4203.077148,4238.205078,3598.000000,1.000000,15.000000,,,,0.000000,4.000000,4.000000,4.000000,4.000000,4.000000,4.000000,4.000000,4.000000,4.000000,4.000000,4.000000,4.000000,4.000000,4.000000,100.000000,,,,,,,,,,,,,,,,,,,,,,,,,,,,
1649282178.689398,10.000000,0.000000,4223.589844,4255.897461,4219.743652,4260.000000,4247.436035,4248.846191,4220.000000,4204.871582,4213.974121,4262.563965,4181.666504,4206.153809,4198.461426,4219.102539,3612.000000,1.000000,15.000000,,,,0.000000,4.000000,4.000000,4.000000,4.000000,4.000000,4.000000,4.000000,4.000000,4.000000,4.000000,4.000000,4.000000,4.000000,4.000000,100.000000,,,,,,,,,,,,,,,,,,,,,,,,,,,,
1649282178.697224,11.000000,0.000000,4213.589844,4225.769043,4211.153809,4229.743652,4238.461426,4246.666504,4214.743652,4201.794922,4185.641113,4250.256348,4188.333496,4199.358887,4181.666504,4215.128418,3270.000000,1.000000,15.000000,,,,0.000000,4.000000,4.000000,4.000000,4.000000,4.000000,4.000000,4.000000,4.000000,4.000000,4.000000,4.000000,4.000000,4.000000,4.000000,100.000000,,,,,,,,,,,,,,,,,,,,,,,,,,,,
1649282178.705149,12.000000,0.000000,4230.000000,4229.871582,4226.666504,4231.282227,4232.948730,4248.589844,4231.282227,4229.358887,4222.307617,4254.487305,4207.051270,4215.641113,4187.436035,4231.025879,3524.000000,1.000000,15.000000,,,,0.000000,4.000000,4.000000,4.000000,4.000000,4.000000,4.000000,4.000000,4.000000,4.000000,4.000000,4.000000,4.000000,4.000000,4.000000,100.000000,,,,,,,,,,,,,,,,,3.000000,0.000000,0.463764,0.512085,-0.463257,0.555054,1.012711,-0.029297,0.039063,-28.711376,-97.499046,0.897231
1649282178.713075,13.000000,0.000000,4229.487305,4251.666504,4223.461426,4247.563965,4272.051270,4247.948730,4239.743652,4239.871582,4268.846191,4259.230957,4205.512695,4218.717773,4210.512695,4230.000000,3498.000000,1.000000,15.000000,,,,0.000000,4.000000,4.000000,4.000000,4.000000,4.000000,4.000000,4.000000,4.000000,4.000000,4.000000,4.000000,4.000000,4.000000,4.000000,100.000000,,,,,,,,,,,,,,,,,,,,,,,,,,,,
1649282178.720901,14.000000,0.000000,4221.282227,4255.256348,4215.256348,4244.102539,4279.487305,4245.641113,4228.077148,4234.743652,4262.563965,4247.820313,4205.641113,4213.333496,4223.589844,4226.410156,3612.000000,1.000000,15.000000,,,,0.000000,4.000000,4.000000,4.000000,4.000000,4.000000,4.000000,4.000000,4.000000,4.000000,4.000000,4.000000,4.000000,4.000000,4.000000,100.000000,,,,,,,,,,,,,,,,,,,,,,,,,,,,
1649282178.728726,15.000000,0.000000,4239.871582,4264.487305,4236.153809,4255.000000,4241.666504,4254.487305,4231.410156,4253.461426,4260.384766,4261.025879,4220.897461,4228.461426,4235.897461,4241.666504,3270.000000,1.000000,15.000000,,,,0.000000,4.000000,4.000000,4.000000,4.000000,4.000000,4.000000,4.000000,4.000000,4.000000,4.000000,4.000000,4.000000,4.000000,4.000000,100.000000,,,,,,,,,,,,,,,,,,,,,,,,,,,,
1649282178.736452,16.000000,0.000000,4255.769043,4266.025879,4254.230957,4268.974121,4236.282227,4264.871582,4240.128418,4262.948730,4277.692383,4283.974121,4223.589844,4241.153809,4236.922852,4253.589844,0.000000,1.000000,15.000000,,,,0.000000,4.000000,4.000000,4.000000,4.000000,4.000000,4.000000,4.000000,4.000000,4.000000,4.000000,4.000000,4.000000,4.000000,4.000000,100.000000,,,,,,,,,,,,,,,,,4.000000,0.000000,0.463648,0.512146,-0.463379,0.554993,1.011734,-0.041993,0.055177,-26.617838,-96.153198,-0.598154
1649282178.744377,17.000000,0.000000,4249.615234,4241.794922,4245.128418,4250.512695,4237.051270,4257.179688,4220.769043,4235.384766,4256.794922,4279.871582,4217.563965,4234.358887,4213.205078,4250.769043,0.000000,1.000000,15.000000,,,,0.000000,4.000000,4.000000,4.000000,4.000000,4.000000,4.000000,4.000000,4.000000,4.000000,4.000000,4.000000,4.000000,4.000000,4.000000,100.000000,,,,,,,,,,,,,,,,,,,,,,,,,,,,
1649282178.752203,18.000000,0.000000,4240.641113,4247.948730,4235.000000,4243.333496,4224.358887,4245.384766,4202.948730,4217.948730,4221.410156,4263.717773,4222.436035,4231.794922,4200.000000,4243.717773,0.000000,1.000000,15.000000,,,,0.000000,4.000000,4.000000,4.000000,4.000000,4.000000,4.000000,4.000000,4.000000,4.000000,4.000000,4.000000,4.000000,4.000000,4.000000,100.000000,,,,,,,,,,,,,,,,,,,,,,,,,,,,
1649282178.760029,19.000000,0.000000,4236.922852,4281.666504,4235.384766,4267.692383,4255.769043,4247.563965,4211.794922,4227.948730,4231.922852,4259.743652,4220.512695,4231.153809,4219.487305,4235.897461,0.000000,1.000000,15.000000,,,,0.000000,4.000000,4.000000,4.000000,4.000000,4.000000,4.000000,4.000000,4.000000,4.000000,4.000000,4.000000,4.000000,4.000000,4.000000,100.000000,,,,,,,,,,,,,,,,,,,,,,,,,,,,
1649282178.767754,20.000000,0.000000,4231.025879,4265.512695,4230.384766,4261.153809,4289.230957,4251.410156,4219.871582,4232.051270,4251.922852,4267.820313,4201.153809,4217.692383,4222.436035,4224.871582,0.000000,1.000000,15.000000,,,,0.000000,4.000000,4.000000,4.000000,4.000000,4.000000,4.000000,4.000000,4.000000,4.000000,4.000000,4.000000,4.000000,4.000000,4.000000,100.000000,,,,,,,,,,,,,,,,,5.000000,0.000000,0.463542,0.512451,-0.463440,0.554749,1.001480,-0.023926,0.037110,-28.262760,-95.106430,1.345846
1649282178.775680,21.000000,0.000000,4226.794922,4237.307617,4226.153809,4236.922852,4261.410156,4250.512695,4222.820313,4227.563965,4235.769043,4265.384766,4199.871582,4215.000000,4202.307617,4220.641113,0.000000,1.000000,15.000000,,,,0.000000,4.000000,4.000000,4.000000,4.000000,4.000000,4.000000,4.000000,4.000000,4.000000,4.000000,4.000000,4.000000,4.000000,4.000000,100.000000,,,,,,,,,,,,,,,,,,,,,,,,,,,,
1649282178.783505,22.000000,0.000000,4239.743652,4256.410156,4239.615234,4256.025879,4235.128418,4250.512695,4238.974121,4237.051270,4231.666504,4256.282227,4223.974121,4232.563965,4205.897461,4235.641113,0.000000,1.000000,15.000000,,,,0.000000,4.000000,4.000000,4.000000,4.000000,4.000000,4.000000,4.000000,4.000000,4.000000,4.000000,4.000000,4.000000,4.000000,4.000000,100.000000,,,,,,,,,,,,,,,,,,,,,,,,,,,,
1649282178.791331,23.000000,0.000000,4254.487305,4265.897461,4250.769043,4268.846191,4255.641113,4250.769043,4248.589844,4252.820313,4263.077148,4271.666504,4231.666504,4240.128418,4227.692383,4246.794922,0.000000,1.000000,15.000000,,,,0.000000,4.000000,4.000000,4.000000,4.000000,4.000000,4.000000,4.000000,4.000000,4.000000,4.000000,4.000000,4.000000,4.000000,4.000000,100.000000,,,,,,,,,,,,,,,,,,,,,,,,,,,,
1649282178.799057,24.000000,0.000000,4243.717773,4251.025879,4238.589844,4245.256348,4255.897461,4249.230957,4244.743652,4246.153809,4262.307617,4295.512695,4215.769043,4231.922852,4240.384766,4236.153809,0.000000,1.000000,15.000000,,,,0.000000,4.000000,4.000000,4.000000,4.000000,4.000000,4.000000,4.000000,4.000000,4.000000,4.000000,4.000000,4.000000,4.000000,4.000000,100.000000,,,,,,,,,,,,,,,,,6.000000,0.000000,0.463474,0.512634,-0.463379,0.554688,1.003922,-0.035645,0.041993,-28.561836,-94.358742,0.299077
1649282178.806982,25.000000,0.000000,4228.589844,4257.436035,4226.922852,4246.282227,4225.769043,4248.974121,4246.538574,4233.846191,4233.846191,4292.051270,4211.410156,4227.820313,4235.256348,4228.589844,0.000000,1.000000,15.000000,,,,0.000000,4.000000,4.000000,4.000000,4.000000,4.000000,4.000000,4.000000,4.000000,4.000000,4.000000,4.000000,4.000000,4.000000,4.000000,100.000000,,,,,,,,,,,,,,,,,,,,,,,,,,,,
1649282178.814808,26.000000,0.000000,4238.461426,4255.769043,4232.820313,4265.000000,4221.794922,4248.589844,4245.897461,4238.077148,4240.897461,4274.358887,4218.846191,4228.333496,4210.128418,4236.153809,0.000000,1.000000,15.000000,,,,0.000000,4.000000,4.000000,4.000000,4.000000,4.000000,4.000000,4.000000,4.000000,4.000000,4.000000,4.000000,4.000000,4.000000,4.000000,100.000000,,,,,,,,,,,,,,,,,,,,,,,,,,,,
1649282178.822634,27.000000,0.000000,4248.461426,4238.205078,4238.077148,4250.256348,4246.025879,4248.589844,4242.179688,4237.692383,4252.948730,4272.948730,4218.461426,4228.461426,4199.487305,4236.410156,0.000000,1.000000,15.000000,,,,0.000000,4.000000,4.000000,4.000000,4.000000,4.000000,4.000000,4.000000,4.000000,4.000000,4.000000,4.000000,4.000000,4.000000,4.000000,100.000000,,,,,,,,,,,,,,,,,,,,,,,,,,,,
1649282178.830359,28.000000,0.000000,4242.436035,4242.051270,4238.205078,4231.025879,4268.205078,4251.794922,4240.128418,4230.000000,4245.128418,4285.000000,4216.794922,4232.563965,4228.333496,4232.436035,0.000000,1.000000,15.000000,,,,0.000000,4.000000,4.000000,4.000000,4.000000,4.000000,4.000000,4.000000,4.000000,4.000000,4.000000,4.000000,4.000000,4.000000,4.000000,100.000000,,,,,,,,,,,,,,,,,7.000000,0.000000,0.463190,0.513000,-0.463257,0.554688,0.995132,-0.039063,0.042481,-28.711376,-94.508278,0.149538
1649282178.838285,29.000000,0.000000,4232.820313,4240.897461,4233.589844,4230.256348,4277.051270,4250.384766,4233.974121,4229.487305,4248.461426,4283.333496,4212.179688,4228.846191,4237.820313,4229.871582,0.000000,1.000000,15.000000,,,,0.000000,4.000000,4.000000,4.000000,4.000000,4.000000,4.000000,4.000000,4.000000,4.000000,4.000000,4.000000,4.000000,4.000000,4.000000,100.000000,,,,,,,,,,,,,,,,,,,,,,,,,,,,
1649282178.846110,30.000000,0.000000,4230.897461,4228.333496,4227.179688,4237.307617,4252.692383,4245.512695,4227.692383,4230.256348,4233.333496,4265.897461,4211.922852,4221.794922,4211.025879,4225.769043,0.000000,1.000000,15.000000,,,,0.000000,4.000000,4.000000,4.000000,4.000000,4.000000,4.000000,4.000000,4.000000,4.000000,4.000000,4.000000,4.000000,4.000000,4.000000,100.000000,,,,,,,,,,,,,,,,,,,,,,,,,,,,
1649282178.853936,31.000000,0.000000,4244.102539,4256.410156,4240.897461,4263.077148,4216.666504,4250.128418,4235.512695,4233.974121,4208.333496,4280.641113,4229.743652,4231.282227,4218.461426,4239.487305,0.000000,1.000000,15.000000,,,,0.000000,4.000000,4.000000,4.000000,4.000000,4.000000,4.000000,4.000000,4.000000,4.000000,4.000000,4.000000,4.000000,4.000000,4.000000,100.000000,,,,,,,,,,,,,,,,,,,,,,,,,,,,
1649282178.861762,32.000000,0.000000,4255.000000,4277.692383,4253.461426,4274.615234,4241.666504,4254.615234,4238.717773,4238.077148,4235.641113,4302.692383,4235.769043,4240.512695,4243.589844,4250.128418,0.000000,1.000000,15.000000,,,,0.000000,4.000000,4.000000,4.000000,4.000000,4.000000,4.000000,4.000000,4.000000,4.000000,4.000000,4.000000,4.000000,4.000000,4.000000,100.000000,,,,,,,,,,,,,,,,,8.000000,0.000000,0.463012,0.513184,-0.463013,0.554871,1.012223,-0.036622,0.029786,-27.066454,-95.854126,-0.598154
1649282178.869587,33.000000,0.000000,4247.179688,4249.102539,4239.230957,4244.743652,4288.846191,4249.743652,4221.538574,4231.538574,4265.769043,4273.974121,4218.974121,4228.717773,4233.974121,4237.051270,0.000000,1.000000,15.000000,,,,0.000000,4.000000,4.000000,4.000000,4.000000,4.000000,4.000000,4.000000,4.000000,4.000000,4.000000,4.000000,4.000000,4.000000,4.000000,100.000000,,,,,,,,,,,,,,,,,,,,,,,,,,,,
1649282178.877413,34.000000,0.000000,4242.436035,4239.871582,4234.358887,4234.615234,4272.179688,4247.563965,4217.563965,4230.000000,4250.512695,4263.461426,4217.563965,4224.230957,4232.307617,4233.717773,0.000000,1.000000,15.000000,,,,0.000000,4.000000,4.000000,4.000000,4.000000,4.000000,4.000000,4.000000,4.000000,4.000000,4.000000,4.000000,4.000000,4.000000,4.000000,100.000000,,,,,,,,,,,,,,,,,,,,,,,,,,,,
1649282178.885338,35.000000,0.000000,4249.358887,4267.436035,4248.974121,4260.512695,4243.974121,4251.410156,4232.307617,4236.922852,4241.025879,4305.512695,4228.717773,4238.333496,4262.436035,4246.538574,0.000000,1.000000,15.000000,,,,0.000000,4.000000,4.000000,4.000000,4.000000,4.000000,4.000000,4.000000,4.000000,4.000000,4.000000,4.000000,4.000000,4.000000,4.000000,100.000000,,,,,,,,,,,,,,,,,,,,,,,,,,,,
1649282178.893264,36.000000,0.000000,4254.358887,4275.769043,4255.512695,4270.128418,4248.077148,4252.692383,4240.128418,4235.512695,4252.948730,4320.000000,4229.743652,4250.000000,4275.897461,4254.743652,0.000000,1.000000,15.000000,,,,0.000000,4.000000,4.000000,4.000000,4.000000,4.000000,4.000000,4.000000,4.000000,4.000000,4.000000,4.000000,4.000000,4.000000,4.000000,100.000000,,,,,,,,,,,,,,,,,9.000000,0.000000,0.463140,0.513245,-0.462891,0.554810,0.993179,-0.048341,0.029297,-26.468300,-94.807358,0.897231
1649282178.901089,37.000000,0.000000,4253.589844,4260.512695,4249.487305,4263.461426,4228.846191,4251.538574,4235.384766,4234.615234,4247.307617,4283.205078,4232.051270,4251.153809,4250.641113,4258.974121,0.000000,1.000000,15.000000,,,,0.000000,4.000000,4.000000,4.000000,4.000000,4.000000,4.000000,4.000000,4.000000,4.000000,4.000000,4.000000,4.000000,4.000000,4.000000,100.000000,,,,,,,,,,,,,,,,,,,,,,,,,,,,
1649282178.908915,38.000000,0.000000,4237.820313,4251.666504,4230.769043,4259.358887,4231.153809,4249.487305,4229.102539,4230.000000,4232.051270,4259.358887,4228.205078,4238.974121,4228.077148,4252.179688,0.000000,1.000000,15.000000,,,,0.000000,4.000000,4.000000,4.000000,4.000000,4.000000,4.000000,4.000000,4.000000,4.000000,4.000000,4.000000,4.000000,4.000000,4.000000,100.000000,,,,,,,,,,,,,,,,,,,,,,,,,,,,
1649282178.916641,39.000000,0.000000,4217.051270,4253.461426,4213.205078,4252.179688,4275.897461,4248.461426,4232.820313,4224.871582,4235.384766,4279.102539,4213.846191,4229.743652,4240.000000,4235.384766,0.000000,1.000000,15.000000,,,,0.000000,4.000000,4.000000,4.000000,4.000000,4.000000,4.000000,4.000000,4.000000,4.000000,4.000000,4.000000,4.000000,4.000000,4.000000,100.000000,,,,,,,,,,,,,,,,,,,,,,,,,,,,
1649282178.924566,40.000000,0.000000,4214.743652,4249.358887,4215.128418,4244.358887,4257.563965,4251.025879,4232.563965,4224.743652,4233.333496,4280.769043,4212.051270,4228.461426,4250.000000,4230.769043,0.000000,1.000000,15.000000,,,,0.000000,4.000000,4.000000,4.000000,4.000000,4.000000,4.000000,4.000000,4.000000,4.000000,4.000000,4.000000,4.000000,4.000000,4.000000,100.000000,,,,,,,,,,,,,,,,,10.000000,0.000000,0.463165,0.513123,-0.463074,0.554749,1.021988,-0.043946,0.048341,-27.215992,-94.807358,0.448615
1649282178.932392,41.000000,0.000000,4215.384766,4230.128418,4212.820313,4231.922852,4217.436035,4251.153809,4220.769043,4219.230957,4218.205078,4247.179688,4216.153809,4223.333496,4234.487305,4230.512695,0.000000,1.000000,15.000000,,,,0.000000,4.000000,4.000000,4.000000,4.000000,4.000000,4.000000,4.000000,4.000000,4.000000,4.000000,4.000000,4.000000,4.000000,4.000000,100.000000,,,,,,,,,,,,,,,,,,,,,,,,,,,,
1649282178.940218,42.000000,0.000000,4212.051270,4224.487305,4207.179688,4222.948730,4242.692383,4249.615234,4218.077148,4219.871582,4221.282227,4255.000000,4213.205078,4221.282227,4229.615234,4229.230957,0.000000,1.000000,15.000000,,,,0.000000,4.000000,4.000000,4.000000,4.000000,4.000000,4.000000,4.000000,4.000000,4.000000,4.000000,4.000000,4.000000,4.000000,4.000000,100.000000,,,,,,,,,,,,,,,,,,,,,,,,,,,,
1649282178.947943,43.000000,0.000000,4214.230957,4251.410156,4213.589844,4240.897461,4264.871582,4250.769043,4224.615234,4235.128418,4246.794922,4292.563965,4217.692383,4225.641113,4247.563965,4237.051270,0.000000,1.000000,15.000000,,,,0.000000,4.000000,4.000000,4.000000,4.000000,4.000000,4.000000,4.000000,4.000000,4.000000,4.000000,4.000000,4.000000,4.000000,4.000000,100.000000,,,,,,,,,,,,,,,,,,,,,,,,,,,,
1649282178.955869,44.000000,0.000000,4209.487305,4255.512695,4207.436035,4253.846191,4246.410156,4248.461426,4219.615234,4232.563965,4249.102539,4284.230957,4214.487305,4218.717773,4252.563965,4228.717773,0.000000,1.000000,15.000000,,,,0.000000,4.000000,4.000000,4.000000,4.000000,4.000000,4.000000,4.000000,4.000000,4.000000,4.000000,4.000000,4.000000,4.000000,4.000000,100.000000,,,,,,,,,,,,,,,,,11.000000,0.000000,0.463392,0.512939,-0.463196,0.554626,1.012223,-0.043946,0.041016,-27.664606,-95.255974,-0.448615
1649282178.963694,45.000000,0.000000,4202.436035,4228.077148,4198.717773,4231.410156,4232.179688,4245.384766,4213.077148,4218.461426,4236.025879,4271.153809,4205.512695,4212.051270,4235.512695,4215.256348,0.000000,1.000000,15.000000,,,,0.000000,4.000000,4.000000,4.000000,4.000000,4.000000,4.000000,4.000000,4.000000,4.000000,4.000000,4.000000,4.000000,4.000000,4.000000,100.000000,,,,,,,,,,,,,,,,,,,,,,,,,,,,
1649282178.971520,46.000000,0.000000,4217.179688,4231.666504,4216.794922,4226.922852,4237.948730,4248.717773,4215.384766,4229.358887,4244.743652,4287.436035,4224.743652,4232.051270,4231.282227,4232.820313,0.000000,1.000000,15.000000,,,,0.000000,4.000000,4.000000,4.000000,4.000000,4.000000,4.000000,4.000000,4.000000,4.000000,4.000000,4.000000,4.000000,4.000000,4.000000,100.000000,,,,,,,,,,,,,,,,,,,,,,,,,,,,
1649282178.979246,47.000000,0.000000,4226.666504,4258.717773,4224.871582,4249.230957,4242.820313,4251.538574,4213.717773,4238.333496,4247.563965,4280.512695,4235.000000,4242.307617,4238.077148,4242.948730,0.000000,1.000000,15.000000,,,,0.000000,4.000000,4.000000,4.000000,4.000000,4.000000,4.000000,4.000000,4.000000,4.000000,4.000000,4.000000,4.000000,4.000000,4.000000,100.000000,,,,,,,,,,,,,,,,,,,,,,,,,,,,
1649282178.987171,48.000000,0.000000,4203.589844,4245.000000,4199.102539,4232.563965,4239.487305,4246.666504,4201.922852,4209.871582,4217.820313,4242.563965,4196.666504,4215.512695,4224.743652,4213.077148,0.000000,1.000000,15.000000,,,,0.000000,4.000000,4.000000,4.000000,4.000000,4.000000,4.000000,4.000000,4.000000,4.000000,4.000000,4.000000,4.000000,4.000000,4.000000,100.000000,,,,,,,,,,,,,,,,,12.000000,0.000000,0.463461,0.512756,-0.463257,0.554688,1.022965,-0.033204,0.038575,-26.617838,-95.106430,0.299077
1649282178.994997,49.000000,0.000000,4196.153809,4222.436035,4196.025879,4215.769043,4225.128418,4242.692383,4195.256348,4196.666504,4197.820313,4239.615234,4184.487305,4206.922852,4227.307617,4206.666504,0.000000,1.000000,15.000000,,,,0.000000,4.000000,4.000000,4.000000,4.000000,4.000000,4.000000,4.000000,4.000000,4.000000,4.000000,4.000000,4.000000,4.000000,4.000000,100.000000,,,,,,,,,,,,,,,,,,,,,,,,,,,,
1649282179.002922,50.000000,0.000000,4228.717773,4247.307617,4228.846191,4247.948730,4208.974121,4246.410156,4208.461426,4236.025879,4227.820313,4295.769043,4237.179688,4243.461426,4274.615234,4247.436035,0.000000,1.000000,15.000000,,,,0.000000,4.000000,4.000000,4.000000,4.000000,4.000000,4.000000,4.000000,4.000000,4.000000,4.000000,4.000000,4.000000,4.000000,4.000000,100.000000,,,,,,,,,,,,,,,,,,,,,,,,,,,,
1649282179.010748,51.000000,0.000000,4237.820313,4256.410156,4232.436035,4252.179688,4225.000000,4248.205078,4221.666504,4251.153809,4259.871582,4330.256348,4260.128418,4256.794922,4303.717773,4261.538574,0.000000,1.000000,15.000000,,,,0.000000,4.000000,4.000000,4.000000,4.000000,4.000000,4.000000,4.000000,4.000000,4.000000,4.000000,4.000000,4.000000,4.000000,4.000000,100.000000,,,,,,,,,,,,,,,,,,,,,,,,,,,,
1649282179.018574,52.000000,0.000000,4208.846191,4217.307617,4203.205078,4211.666504,4258.717773,4246.025879,4213.589844,4220.512695,4253.333496,4308.077148,4232.692383,4229.230957,4295.256348,4239.358887,0.000000,1.000000,15.000000,,,,0.000000,4.000000,4.000000,4.000000,4.000000,4.000000,4.000000,4.000000,4.000000,4.000000,4.000000,4.000000,4.000000,4.000000,4.000000,100.000000,,,,,,,,,,,,,,,,,13.000000,0.000000,0.463620,0.512634,-0.463379,0.554565,1.027848,-0.032715,0.044434,-26.767376,-95.555046,0.149538
1649282179.026499,53.000000,0.000000,4209.743652,4210.641113,4206.153809,4211.922852,4251.666504,4248.333496,4218.205078,4231.538574,4249.487305,4302.179688,4241.282227,4233.717773,4310.769043,4244.230957,0.000000,1.000000,15.000000,,,,0.000000,4.000000,4.000000,4.000000,4.000000,4.000000,4.000000,4.000000,4.000000,4.000000,4.000000,4.000000,4.000000,4.000000,4.000000,100.000000,,,,,,,,,,,,,,,,,,,,,,,,,,,,
1649282179.034325,54.000000,0.000000,4236.922852,4239.871582,4232.948730,4241.794922,4232.307617,4253.333496,4235.128418,4267.948730,4271.153809,4326.410156,4288.333496,4267.563965,4347.948730,4272.179688,0.000000,1.000000,15.000000,,,,0.000000,4.000000,4.000000,4.000000,4.000000,4.000000,4.000000,4.000000,4.000000,4.000000,4.000000,4.000000,4.000000,4.000000,4.000000,100.000000,,,,,,,,,,,,,,,,,,,,,,,,,,,,
1649282179.042150,55.000000,0.000000,4226.153809,4217.948730,4223.974121,4219.615234,4249.230957,4250.897461,4223.974121,4247.051270,4271.410156,4321.538574,4295.000000,4263.717773,4348.077148,4269.615234,0.000000,1.000000,15.000000,,,,0.000000,4.000000,4.000000,4.000000,4.000000,4.000000,4.000000,4.000000,4.000000,4.000000,4.000000,4.000000,4.000000,4.000000,4.000000,100.000000,,,,,,,,,,,,,,,,,,,,,,,,,,,,
1649282179.050076,56.000000,0.000000,4208.717773,4181.282227,4208.717773,4190.128418,4240.256348,4245.000000,4207.692383,4217.563965,4255.769043,4304.102539,4264.102539,4244.871582,4328.717773,4251.282227,0.000000,1.000000,15.000000,,,,0.000000,4.000000,4.000000,4.000000,4.000000,4.000000,4.000000,4.000000,4.000000,4.000000,4.000000,4.000000,4.000000,4.000000,4.000000,100.000000,,,,,,,,,,,,,,,,,14.000000,0.000000,0.463693,0.512634,-0.463379,0.554504,1.006363,-0.022950,0.038575,-28.561836,-93.910126,0.598154
1649282179.058001,57.000000,0.000000,4228.205078,4203.974121,4227.563965,4211.153809,4213.974121,4245.512695,4220.512695,4246.282227,4272.948730,4323.333496,4266.153809,4257.692383,4339.358887,4261.922852,0.000000,1.000000,15.000000,,,,0.000000,4.000000,4.000000,4.000000,4.000000,4.000000,4.000000,4.000000,4.000000,4.000000,4.000000,4.000000,4.000000,4.000000,4.000000,100.000000,,,,,,,,,,,,,,,,,,,,,,,,,,,,
1649282179.065827,58.000000,0.000000,4240.384766,4226.538574,4238.077148,4227.307617,4239.871582,4249.358887,4237.436035,4272.307617,4291.922852,4348.846191,4288.846191,4270.384766,4353.077148,4277.307617,0.000000,1.000000,15.000000,,,,0.000000,4.000000,4.000000,4.000000,4.000000,4.000000,4.000000,4.000000,4.000000,4.000000,4.000000,4.000000,4.000000,4.000000,4.000000,100.000000,,,,,,,,,,,,,,,,,,,,,,,,,,,,
1649282179.073653,59.000000,0.000000,4226.922852,4208.333496,4224.358887,4209.102539,4247.563965,4249.230957,4232.820313,4259.358887,4280.000000,4324.615234,4285.128418,4259.102539,4337.820313,4266.794922,0.000000,1.000000,15.000000,,,,0.000000,4.000000,4.000000,4.000000,4.000000,4.000000,4.000000,4.000000,4.000000,4.000000,4.000000,4.000000,4.000000,4.000000,4.000000,100.000000,,,,,,,,,,,,,,,,,,,,,,,,,,,,
1649282179.081378,60.000000,0.000000,4231.282227,4208.077148,4227.692383,4207.307617,4213.846191,4248.205078,4226.538574,4255.897461,4271.794922,4294.487305,4276.153809,4256.282227,4329.102539,4262.179688,0.000000,1.000000,15.000000,,,,0.000000,4.000000,4.000000,4.000000,4.000000,4.000000,4.000000,4.000000,4.000000,4.000000,4.000000,4.000000,4.000000,4.000000,4.000000,100.000000,,,,,,,,,,,,,,,,,15.000000,0.000000,0.463783,0.512695,-0.463440,0.554321,1.016617,-0.031739,0.042969,-27.365530,-93.910126,0.598154
1649282179.089304,61.000000,0.000000,4236.666504,4226.025879,4234.358887,4225.641113,4230.128418,4249.102539,4232.948730,4259.102539,4271.025879,4307.563965,4283.461426,4261.153809,4330.256348,4268.461426,0.000000,1.000000,15.000000,,,,0.000000,4.000000,4.000000,4.000000,4.000000,4.000000,4.000000,4.000000,4.000000,4.000000,4.000000,4.000000,4.000000,4.000000,4.000000,100.000000,,,,,,,,,,,,,,,,,,,,,,,,,,,,
1649282179.097129,62.000000,0.000000,4213.589844,4206.153809,4213.205078,4211.282227,4266.794922,4246.666504,4229.102539,4236.153809,4249.487305,4305.641113,4276.794922,4246.025879,4316.025879,4252.436035,0.000000,1.000000,15.000000,,,,0.000000,4.000000,4.000000,4.000000,4.000000,4.000000,4.000000,4.000000,4.000000,4.000000,4.000000,4.000000,4.000000,4.000000,4.000000,100.000000,,,,,,,,,,,,,,,,,,,,,,,,,,,,
1649282179.104955,63.000000,0.000000,4219.230957,4199.615234,4216.794922,4206.538574,4233.974121,4244.743652,4221.666504,4236.666504,4253.589844,4302.820313,4271.922852,4247.563965,4332.692383,4252.051270,0.000000,1.000000,15.000000,,,,0.000000,4.000000,4.000000,4.000000,4.000000,4.000000,4.000000,4.000000,4.000000,4.000000,4.000000,4.000000,4.000000,4.000000,4.000000,100.000000,,,,,,,,,,,,,,,,,,,,,,,,,,,,
1649282179.112681,64.000000,0.000000,4242.436035,4227.948730,4239.871582,4230.256348,4204.487305,4248.205078,4224.358887,4257.563965,4279.102539,4333.077148,4281.025879,4266.025879,4349.230957,4271.922852,3563.000000,1.000000,15.000000,,,,0.000000,4.000000,4.000000,4.000000,4.000000,4.000000,4.000000,4.000000,4.000000,4.000000,4.000000,4.000000,4.000000,4.000000,4.000000,100.000000,,,,,,,,,,,,,,,,,16.000000,0.000000,0.463861,0.512878,-0.463379,0.554138,1.012223,-0.031250,0.052247,-27.215992,-94.807358,0.149538
1649282179.120606,65.000000,0.000000,4225.897461,4224.487305,4225.256348,4224.743652,4240.384766,4247.948730,4220.256348,4240.641113,4270.256348,4326.666504,4270.000000,4252.820313,4315.128418,4258.717773,3553.000000,1.000000,15.000000,,,,0.000000,4.000000,4.000000,4.000000,4.000000,4.000000,4.000000,4.000000,4.000000,4.000000,4.000000,4.000000,4.000000,4.000000,4.000000,100.000000,,,,,,,,,,,,,,,,,,,,,,,,,,,,
1649282179.128432,66.000000,0.000000,4211.282227,4203.077148,4212.307617,4207.563965,4262.307617,4244.230957,4219.230957,4233.589844,4271.282227,4301.922852,4260.000000,4240.769043,4309.487305,4243.333496,3563.000000,1.000000,15.000000,,,,0.000000,4.000000,4.000000,4.000000,4.000000,4.000000,4.000000,4.000000,4.000000,4.000000,4.000000,4.000000,4.000000,4.000000,4.000000,100.000000,,,,,,,,,,,,,,,,,,,,,,,,,,,,
1649282179.136257,67.000000,0.000000,4233.589844,4215.641113,4232.692383,4218.717773,4233.717773,4247.692383,4241.025879,4266.153809,4309.615234,4323.205078,4275.641113,4260.000000,4344.358887,4264.615234,3568.000000,1.000000,15.000000,,,,0.000000,4.000000,4.000000,4.000000,4.000000,4.000000,4.000000,4.000000,4.000000,4.000000,4.000000,4.000000,4.000000,4.000000,4.000000,100.000000,,,,,,,,,,,,,,,,,,,,,,,,,,,,
1649282179.143983,68.000000,0.000000,4240.769043,4234.743652,4240.769043,4232.563965,4219.487305,4253.077148,4252.948730,4274.871582,4321.922852,4328.589844,4281.410156,4266.666504,4343.589844,4272.692383,3622.000000,1.000000,15.000000,,,,0.000000,4.000000,4.000000,4.000000,4.000000,4.000000,4.000000,4.000000,4.000000,4.000000,4.000000,4.000000,4.000000,4.000000,4.000000,100.000000,,,,,,,,,,,,,,,,,17.000000,0.000000,0.463964,0.512939,-0.463135,0.554199,1.017594,-0.028321,0.055665,-27.066454,-94.657814,-1.046769
1649282179.151909,69.000000,0.000000,4217.051270,4218.461426,4223.333496,4216.794922,4241.282227,4248.589844,4236.410156,4252.948730,4293.717773,4285.512695,4263.717773,4245.000000,4308.461426,4248.846191,1737.000000,1.000000,15.000000,,,,0.000000,4.000000,4.000000,4.000000,4.000000,4.000000,4.000000,4.000000,4.000000,4.000000,4.000000,4.000000,4.000000,4.000000,4.000000,100.000000,,,,,,,,,,,,,,,,,,,,,,,,,,,,
1649282179.159734,70.000000,0.000000,4217.948730,4201.153809,4222.692383,4202.179688,4246.794922,4243.205078,4231.282227,4252.563965,4291.282227,4269.743652,4258.717773,4242.307617,4292.692383,4243.205078,3630.000000,1.000000,15.000000,,,,0.000000,4.000000,4.000000,4.000000,4.000000,4.000000,4.000000,4.000000,4.000000,4.000000,4.000000,4.000000,4.000000,4.000000,4.000000,100.000000,,,,,,,,,,,,,,,,,,,,,,,,,,,,
1649282179.167660,71.000000,0.000000,4235.000000,4200.512695,4231.922852,4200.128418,4223.974121,4246.282227,4238.589844,4260.256348,4307.179688,4293.974121,4265.641113,4252.436035,4305.000000,4252.179688,3555.000000,1.000000,15.000000,,,,0.000000,4.000000,4.000000,4.000000,4.000000,4.000000,4.000000,4.000000,4.000000,4.000000,4.000000,4.000000,4.000000,4.000000,4.000000,100.000000,1.000000,41.666668,4.000000,4.000000,4.000000,4.000000,1.000000,4.000000,4.000000,4.000000,3.000000,1.000000,4.000000,4.000000,3.000000,4.000000,,,,,,,,,,,,
1649282179.175585,72.000000,0.000000,4223.846191,4200.000000,4221.282227,4200.512695,4208.333496,4247.948730,4230.256348,4248.717773,4290.897461,4298.461426,4254.358887,4240.256348,4314.743652,4244.615234,3505.000000,1.000000,15.000000,,,,0.000000,4.000000,4.000000,4.000000,4.000000,4.000000,4.000000,4.000000,4.000000,4.000000,4.000000,4.000000,4.000000,4.000000,4.000000,100.000000,,,,,,,,,,,,,,,,,18.000000,0.000000,0.463964,0.512939,-0.463135,0.554199,0.989761,-0.033204,0.044923,-27.365530,-94.358742,-0.299077
1649282179.183411,73.000000,0.000000,4210.512695,4204.487305,4212.307617,4210.384766,4214.358887,4245.384766,4231.538574,4249.102539,4276.282227,4282.563965,4249.358887,4230.897461,4295.769043,4242.692383,3593.000000,1.000000,15.000000,,,,0.000000,4.000000,4.000000,4.000000,4.000000,4.000000,4.000000,4.000000,4.000000,4.000000,4.000000,4.000000,4.000000,4.000000,4.000000,100.000000,,,,,,,,,,,,,,,,,,,,,,,,,,,,
1649282179.191237,74.000000,0.000000,4223.333496,4225.000000,4223.205078,4224.615234,4225.641113,4246.282227,4251.153809,4264.230957,4301.282227,4282.692383,4262.563965,4246.153809,4283.717773,4254.230957,3602.000000,1.000000,15.000000,,,,0.000000,4.000000,4.000000,4.000000,4.000000,4.000000,4.000000,4.000000,4.000000,4.000000,4.000000,4.000000,4.000000,4.000000,4.000000,100.000000,,,,,,,,,,,,,,,,,,,,,,,,,,,,
1649282179.199162,75.000000,0.000000,4228.333496,4236.922852,4226.666504,4225.000000,4241.922852,4250.641113,4250.769043,4260.769043,4322.692383,4288.205078,4260.128418,4252.179688,4306.282227,4253.846191,3265.000000,1.000000,15.000000,,,,0.000000,4.000000,4.000000,4.000000,4.000000,4.000000,4.000000,4.000000,4.000000,4.000000,4.000000,4.000000,4.000000,4.000000,4.000000,100.000000,,,,,,,,,,,,,,,,,,,,,,,,,,,,
1649282179.206988,76.000000,0.000000,4210.769043,4211.282227,4210.256348,4204.358887,4260.641113,4249.487305,4231.153809,4243.205078,4303.846191,4285.128418,4239.743652,4233.717773,4306.922852,4241.153809,3523.000000,1.000000,15.000000,,,,0.000000,4.000000,4.000000,4.000000,4.000000,4.000000,4.000000,4.000000,4.000000,4.000000,4.000000,4.000000,4.000000,4.000000,4.000000,100.000000,,,,,,,,,,,,,,,,,19.000000,0.000000,0.463855,0.512817,-0.463379,0.554199,1.000015,-0.016114,0.049805,-27.664606,-95.255974,1.644923
1649282179.214913,77.000000,0.000000,4211.282227,4193.846191,4209.615234,4193.589844,4245.512695,4247.436035,4226.410156,4241.153809,4290.897461,4276.922852,4234.230957,4226.666504,4282.820313,4240.897461,3492.000000,1.000000,15.000000,,,,0.000000,4.000000,4.000000,4.000000,4.000000,4.000000,4.000000,4.000000,4.000000,4.000000,4.000000,4.000000,4.000000,4.000000,4.000000,100.000000,,,,,,,,,,,,,,,,,,,,,,,,,,,,
1649282179.222739,78.000000,0.000000,4231.794922,4205.000000,4229.871582,4208.077148,4220.384766,4249.487305,4232.436035,4245.000000,4295.000000,4263.333496,4247.948730,4242.051270,4275.512695,4253.333496,3602.000000,1.000000,15.000000,,,,0.000000,4.000000,4.000000,4.000000,4.000000,4.000000,4.000000,4.000000,4.000000,4.000000,4.000000,4.000000,4.000000,4.000000,4.000000,100.000000,,,,,,,,,,,,,,,,,,,,,,,,,,,,
1649282179.230564,79.000000,0.000000,4247.307617,4223.461426,4245.000000,4228.589844,4215.128418,4250.256348,4229.358887,4250.384766,4297.051270,4275.000000,4261.025879,4258.846191,4281.410156,4265.256348,3265.000000,1.000000,15.000000,,,,0.000000,4.000000,4.000000,4.000000,4.000000,4.000000,4.000000,4.000000,4.000000,4.000000,4.000000,4.000000,4.000000,4.000000,4.000000,100.000000,,,,,,,,,,,,,,,,,,,,,,,,,,,,
1649282179.238290,80.000000,0.000000,4244.615234,4228.846191,4240.384766,4229.487305,4215.769043,4246.666504,4218.846191,4246.538574,4295.641113,4291.025879,4254.743652,4256.410156,4275.000000,4259.615234,3523.000000,1.000000,15.000000,,,,0.000000,4.000000,4.000000,4.000000,4.000000,4.000000,4.000000,4.000000,4.000000,4.000000,4.000000,4.000000,4.000000,4.000000,4.000000,100.000000,,,,,,,,,,,,,,,,,20.000000,0.000000,0.463782,0.512817,-0.463379,0.554260,1.005386,-0.023926,0.041505,-27.066454,-96.452278,0.598154
1649282179.246016,81.000000,0.000000,4227.692383,4209.358887,4226.410156,4207.436035,4231.922852,4242.692383,4207.051270,4220.512695,4279.102539,4264.102539,4241.153809,4239.743652,4265.897461,4243.846191,3492.000000,1.000000,15.000000,,,,0.000000,4.000000,4.000000,4.000000,4.000000,4.000000,4.000000,4.000000,4.000000,4.000000,4.000000,4.000000,4.000000,4.000000,4.000000,100.000000,,,,,,,,,,,,,,,,,,,,,,,,,,,,
1649282179.253841,82.000000,0.000000,4231.922852,4203.974121,4230.641113,4205.256348,4252.436035,4245.641113,4212.948730,4225.769043,4281.410156,4261.666504,4253.846191,4246.666504,4289.743652,4251.538574,3602.000000,1.000000,15.000000,,,,0.000000,4.000000,4.000000,4.000000,4.000000,4.000000,4.000000,4.000000,4.000000,4.000000,4.000000,4.000000,4.000000,4.000000,4.000000,100.000000,,,,,,,,,,,,,,,,,,,,,,,,,,,,
1649282179.261667,83.000000,0.000000,4244.487305,4228.461426,4238.846191,4230.512695,4231.410156,4248.077148,4230.256348,4259.743652,4320.384766,4306.025879,4271.153809,4262.820313,4322.051270,4268.205078,3265.000000,1.000000,15.000000,,,,0.000000,4.000000,4.000000,4.000000,4.000000,4.000000,4.000000,4.000000,4.000000,4.000000,4.000000,4.000000,4.000000,4.000000,4.000000,100.000000,,,,,,,,,,,,,,,,,,,,,,,,,,,,
1649282179.269492,84.000000,0.000000,4237.179688,4233.077148,4233.846191,4233.333496,4214.102539,4247.051270,4231.666504,4261.922852,4333.077148,4308.461426,4267.436035,4253.717773,4316.153809,4263.461426,3523.000000,1.000000,15.000000,,,,0.000000,4.000000,4.000000,4.000000,4.000000,4.000000,4.000000,4.000000,4.000000,4.000000,4.000000,4.000000,4.000000,4.000000,4.000000,100.000000,,,,,,,,,,,,,,,,,21.000000,0.000000,0.463725,0.513123,-0.462952,0.554382,0.986831,-0.019043,0.042969,-27.963684,-95.255974,1.943999
1649282179.277318,85.000000,0.000000,4230.000000,4210.641113,4229.102539,4210.512695,4249.102539,4252.948730,4231.922852,4253.461426,4311.282227,4286.282227,4259.102539,4242.948730,4292.948730,4253.333496,3492.000000,1.000000,15.000000,,,,0.000000,4.000000,4.000000,4.000000,4.000000,4.000000,4.000000,4.000000,4.000000,4.000000,4.000000,4.000000,4.000000,4.000000,4.000000,100.000000,,,,,,,,,,,,,,,,,,,,,,,,,,,,
1649282179.285144,86.000000,0.000000,4228.589844,4210.128418,4222.179688,4209.743652,4276.153809,4258.333496,4237.179688,4255.384766,4305.641113,4287.179688,4251.922852,4245.384766,4289.871582,4248.333496,3602.000000,1.000000,15.000000,,,,0.000000,4.000000,4.000000,4.000000,4.000000,4.000000,4.000000,4.000000,4.000000,4.000000,4.000000,4.000000,4.000000,4.000000,4.000000,100.000000,,,,,,,,,,,,,,,,,,,,,,,,,,,,
1649282179.292869,87.000000,0.000000,4223.461426,4226.538574,4218.077148,4221.922852,4247.307617,4252.307617,4228.461426,4251.282227,4302.948730,4286.025879,4254.871582,4242.820313,4296.922852,4248.717773,3265.000000,1.000000,15.000000,,,,0.000000,4.000000,4.000000,4.000000,4.000000,4.000000,4.000000,4.000000,4.000000,4.000000,4.000000,4.000000,4.000000,4.000000,4.000000,100.000000,,,,,,,,,,,,,,,,,,,,,,,,,,,,
1649282179.300795,88.000000,0.000000,4228.333496,4231.153809,4227.436035,4222.820313,4205.641113,4244.743652,4212.307617,4242.820313,4279.487305,4277.436035,4259.743652,4238.333496,4296.153809,4254.743652,3523.000000,1.000000,15.000000,,,,0.000000,4.000000,4.000000,4.000000,4.000000,4.000000,4.000000,4.000000,4.000000,4.000000,4.000000,4.000000,4.000000,4.000000,4.000000,100.000000,,,,,,,,,,,,,,,,,22.000000,0.000000,0.463297,0.513367,-0.462524,0.554871,1.015152,-0.035157,0.038575,-27.814146,-94.358742,-1.046769
1649282179.308621,89.000000,0.000000,4244.358887,4230.897461,4237.436035,4233.077148,4216.282227,4247.051270,4216.153809,4236.666504,4281.922852,4281.794922,4258.205078,4245.128418,4297.436035,4262.563965,3492.000000,1.000000,15.000000,,,,0.000000,4.000000,4.000000,4.000000,4.000000,4.000000,4.000000,4.000000,4.000000,4.000000,4.000000,4.000000,4.000000,4.000000,4.000000,100.000000,,,,,,,,,,,,,,,,,,,,,,,,,,,,
1649282179.316446,90.000000,0.000000,4247.436035,4225.897461,4239.743652,4234.487305,4263.589844,4251.922852,4240.512695,4240.256348,4321.410156,4287.051270,4266.666504,4255.384766,4302.307617,4270.512695,3602.000000,1.000000,15.000000,,,,0.000000,4.000000,4.000000,4.000000,4.000000,4.000000,4.000000,4.000000,4.000000,4.000000,4.000000,4.000000,4.000000,4.000000,4.000000,100.000000,,,,,,,,,,,,,,,,,,,,,,,,,,,,
1649282179.324172,91.000000,0.000000,4230.128418,4226.410156,4229.102539,4220.000000,4258.717773,4252.436035,4248.589844,4250.512695,4336.153809,4290.641113,4267.948730,4248.717773,4304.487305,4265.769043,3265.000000,1.000000,15.000000,,,,0.000000,4.000000,4.000000,4.000000,4.000000,4.000000,4.000000,4.000000,4.000000,4.000000,4.000000,4.000000,4.000000,4.000000,4.000000,100.000000,,,,,,,,,,,,,,,,,,,,,,,,,,,,
1649282179.332097,92.000000,0.000000,4217.179688,4233.333496,4217.051270,4223.461426,4226.153809,4250.000000,4234.743652,4248.589844,4315.512695,4294.743652,4245.897461,4232.692383,4306.025879,4249.487305,3523.000000,1.000000,15.000000,,,,0.000000,4.000000,4.000000,4.000000,4.000000,4.000000,4.000000,4.000000,4.000000,4.000000,4.000000,4.000000,4.000000,4.000000,4.000000,100.000000,,,,,,,,,,,,,,,,,23.000000,0.000000,0.463054,0.513367,-0.462402,0.555176,1.025895,-0.046387,0.050782,-27.814146,-94.657814,0.598154
1649282179.339923,93.000000,0.000000,4224.102539,4235.128418,4220.512695,4234.102539,4238.589844,4247.307617,4225.000000,4244.487305,4304.615234,4295.128418,4247.820313,4235.000000,4310.897461,4249.871582,3492.000000,1.000000,15.000000,,,,0.000000,4.000000,4.000000,4.000000,4.000000,4.000000,4.000000,4.000000,4.000000,4.000000,4.000000,4.000000,4.000000,4.000000,4.000000,100.000000,,,,,,,,,,,,,,,,,,,,,,,,,,,,
1649282179.347749,94.000000,0.000000,4233.974121,4236.025879,4228.333496,4231.794922,4249.230957,4252.179688,4225.769043,4251.538574,4313.974121,4295.769043,4264.743652,4245.384766,4312.307617,4260.641113,3602.000000,1.000000,15.000000,,,,0.000000,4.000000,4.000000,4.000000,4.000000,4.000000,4.000000,4.000000,4.000000,4.000000,4.000000,4.000000,4.000000,4.000000,4.000000,100.000000,,,,,,,,,,,,,,,,,,,,,,,,,,,,
1649282179.355474,95.000000,0.000000,4222.692383,4227.820313,4218.589844,4225.769043,4240.256348,4255.000000,4227.051270,4252.436035,4317.692383,4288.077148,4253.717773,4235.897461,4288.333496,4252.820313,3265.000000,1.000000,15.000000,,,,0.000000,4.000000,4.000000,4.000000,4.000000,4.000000,4.000000,4.000000,4.000000,4.000000,4.000000,4.000000,4.000000,4.000000,4.000000,100.000000,,,,,,,,,,,,,,,,,,,,,,,,,,,,
1649282179.363400,96.000000,0.000000,4214.615234,4221.025879,4213.846191,4220.897461,4244.102539,4252.436035,4232.563965,4253.077148,4308.589844,4279.871582,4252.179688,4228.717773,4261.025879,4245.769043,3523.000000,1.000000,15.000000,,,,0.000000,4.000000,4.000000,4.000000,4.000000,4.000000,4.000000,4.000000,4.000000,4.000000,4.000000,4.000000,4.000000,4.000000,4.000000,100.000000,,,,,,,,,,,,,,,,,24.000000,0.000000,0.462597,0.513184,-0.462402,0.555725,1.009293,-0.028809,0.047364,-27.963684,-96.302742,0.149538
1649282179.371225,97.000000,0.000000,4227.307617,4230.769043,4227.307617,4215.512695,4241.025879,4256.025879,4250.128418,4264.871582,4304.230957,4284.230957,4268.077148,4239.102539,4267.179688,4257.307617,3492.000000,1.000000,15.000000,,,,0.000000,4.000000,4.000000,4.000000,4.000000,4.000000,4.000000,4.000000,4.000000,4.000000,4.000000,4.000000,4.000000,4.000000,4.000000,100.000000,,,,,,,,,,,,,,,,,,,,,,,,,,,,
1649282179.379051,98.000000,0.000000,4237.307617,4231.410156,4235.000000,4218.846191,4238.846191,4264.743652,4264.615234,4270.256348,4317.563965,4295.641113,4266.922852,4249.615234,4284.102539,4263.717773,3602.000000,1.000000,15.000000,,,,0.000000,4.000000,4.000000,4.000000,4.000000,4.000000,4.000000,4.000000,4.000000,4.000000,4.000000,4.000000,4.000000,4.000000,4.000000,100.000000,,,,,,,,,,,,,,,,,,,,,,,,,,,,
1649282179.386776,99.000000,0.000000,4231.666504,4213.205078,4231.153809,4215.897461,4256.282227,4263.717773,4257.948730,4258.846191,4322.820313,4294.743652,4263.846191,4248.205078,4277.307617,4255.512695,3265.000000,1.000000,15.000000,,,,0.000000,4.000000,4.000000,4.000000,4.000000,4.000000,4.000000,4.000000,4.000000,4.000000,4.000000,4.000000,4.000000,4.000000,4.000000,100.000000,,,,,,,,,,,,,,,,,,,,,,,,,,,,
1649282179.394702,100.000000,0.000000,4222.948730,4212.692383,4222.179688,4206.410156,4242.948730,4257.692383,4235.256348,4234.615234,4297.307617,4266.153809,4263.846191,4235.769043,4259.102539,4244.487305,3523.000000,1.000000,15.000000,,,,0.000000,4.000000,4.000000,4.000000,4.000000,4.000000,4.000000,4.000000,4.000000,4.000000,4.000000,4.000000,4.000000,4.000000,4.000000,100.000000,,,,,,,,,,,,,,,,,25.000000,0.000000,0.462155,0.512756,-0.462952,0.556030,1.003433,-0.044923,0.039551,-28.262760,-95.854126,-0.299077
1649282179.402628,101.000000,0.000000,4226.666504,4228.461426,4222.948730,4211.666504,4210.512695,4261.410156,4228.077148,4230.769043,4290.641113,4253.333496,4255.000000,4233.717773,4257.436035,4246.922852,3492.000000,1.000000,15.000000,,,,0.000000,4.000000,4.000000,4.000000,4.000000,4.000000,4.000000,4.000000,4.000000,4.000000,4.000000,4.000000,4.000000,4.000000,4.000000,100.000000,,,,,,,,,,,,,,,,,,,,,,,,,,,,
1649282179.410453,102.000000,0.000000,4236.410156,4230.897461,4234.615234,4220.897461,4233.717773,4259.487305,4237.948730,4250.256348,4314.743652,4276.538574,4247.563965,4249.358887,4256.794922,4256.538574,3602.000000,1.000000,15.000000,,,,0.000000,4.000000,4.000000,4.000000,4.000000,4.000000,4.000000,4.000000,4.000000,4.000000,4.000000,4.000000,4.000000,4.000000,4.000000,100.000000,,,,,,,,,,,,,,,,,,,,,,,,,,,,
1649282179.418279,103.000000,0.000000,4238.974121,4235.641113,4238.589844,4222.692383,4260.384766,4248.974121,4230.384766,4251.794922,4313.077148,4284.230957,4250.897461,4251.410156,4243.461426,4254.230957,3265.000000,1.000000,15.000000,,,,0.000000,4.000000,4.000000,4.000000,4.000000,4.000000,4.000000,4.000000,4.000000,4.000000,4.000000,4.000000,4.000000,4.000000,4.000000,100.000000,,,,,,,,,,,,,,,,,,,,,,,,,,,,
1649282179.426004,104.000000,0.000000,4233.077148,4243.205078,4231.410156,4217.179688,4257.692383,4247.563965,4215.769043,4241.410156,4291.922852,4268.717773,4247.692383,4234.487305,4234.487305,4242.051270,3523.000000,1.000000,15.000000,,,,0.000000,4.000000,4.000000,4.000000,4.000000,4.000000,4.000000,4.000000,4.000000,4.000000,4.000000,4.000000,4.000000,4.000000,4.000000,100.000000,,,,,,,,,,,,,,,,,26.000000,0.000000,0.461850,0.512512,-0.463379,0.556152,1.010269,-0.036622,0.038575,-27.814146,-95.854126,1.046769
1649282179.433930,105.000000,0.000000,4233.589844,4243.205078,4230.128418,4223.974121,4250.128418,4250.512695,4215.641113,4241.666504,4293.717773,4259.743652,4238.077148,4229.487305,4230.641113,4236.282227,3492.000000,1.000000,15.000000,,,,0.000000,4.000000,4.000000,4.000000,4.000000,4.000000,4.000000,4.000000,4.000000,4.000000,4.000000,4.000000,4.000000,4.000000,4.000000,100.000000,,,,,,,,,,,,,,,,,,,,,,,,,,,,
1649282179.441756,106.000000,0.000000,4243.717773,4253.846191,4240.512695,4249.743652,4219.487305,4250.128418,4220.512695,4238.461426,4301.538574,4239.358887,4234.615234,4236.153809,4220.897461,4235.384766,3602.000000,1.000000,15.000000,,,,0.000000,4.000000,4.000000,4.000000,4.000000,4.000000,4.000000,4.000000,4.000000,4.000000,4.000000,4.000000,4.000000,4.000000,4.000000,100.000000,,,,,,,,,,,,,,,,,,,,,,,,,,,,
1649282179.449581,107.000000,0.000000,4234.230957,4252.948730,4230.000000,4250.512695,4207.948730,4251.153809,4223.077148,4232.436035,4291.538574,4208.974121,4226.410156,4224.871582,4199.358887,4221.922852,3265.000000,1.000000,15.000000,,,,0.000000,4.000000,4.000000,4.000000,4.000000,4.000000,4.000000,4.000000,4.000000,4.000000,4.000000,4.000000,4.000000,4.000000,4.000000,100.000000,,,,,,,,,,,,,,,,,,,,,,,,,,,,
1649282179.457307,108.000000,0.000000,4207.563965,4220.256348,4203.205078,4215.769043,4254.487305,4251.153809,4226.153809,4233.589844,4270.769043,4212.307617,4205.897461,4202.820313,4169.487305,4202.563965,3523.000000,1.000000,15.000000,,,,0.000000,4.000000,4.000000,4.000000,4.000000,4.000000,4.000000,4.000000,4.000000,4.000000,4.000000,4.000000,4.000000,4.000000,4.000000,100.000000,,,,,,,,,,,,,,,,,27.000000,0.000000,0.461509,0.512268,-0.463623,0.556458,1.010269,-0.035157,0.036622,-28.711376,-94.209198,0.448615
1649282179.465232,109.000000,0.000000,4195.384766,4208.077148,4194.230957,4201.666504,4274.230957,4248.333496,4228.077148,4226.282227,4259.871582,4232.948730,4189.230957,4193.205078,4144.615234,4194.102539,3492.000000,1.000000,15.000000,,,,0.000000,4.000000,4.000000,4.000000,4.000000,4.000000,4.000000,4.000000,4.000000,4.000000,4.000000,4.000000,4.000000,4.000000,4.000000,100.000000,,,,,,,,,,,,,,,,,,,,,,,,,,,,
1649282179.473058,110.000000,0.000000,4203.974121,4241.922852,4205.256348,4227.051270,4237.436035,4251.794922,4232.692383,4216.153809,4274.871582,4232.179688,4182.820313,4198.333496,4145.769043,4197.051270,3602.000000,1.000000,15.000000,,,,0.000000,4.000000,4.000000,4.000000,4.000000,4.000000,4.000000,4.000000,4.000000,4.000000,4.000000,4.000000,4.000000,4.000000,4.000000,100.000000,,,,,,,,,,,,,,,,,,,,,,,,,,,,
1649282179.480984,111.000000,0.000000,4204.615234,4255.897461,4207.051270,4236.410156,4222.436035,4252.307617,4233.974121,4217.307617,4277.692383,4214.871582,4181.153809,4200.512695,4159.871582,4200.000000,3265.000000,1.000000,15.000000,,,,0.000000,4.000000,4.000000,4.000000,4.000000,4.000000,4.000000,4.000000,4.000000,4.000000,4.000000,4.000000,4.000000,4.000000,4.000000,100.000000,,,,,,,,,,,,,,,,,,,,,,,,,,,,
1649282179.488809,112.000000,0.000000,4196.794922,4231.282227,4197.948730,4219.487305,4237.692383,4246.410156,4218.333496,4215.512695,4240.512695,4200.769043,4188.974121,4193.717773,4153.077148,4195.000000,3523.000000,1.000000,15.000000,,,,0.000000,4.000000,4.000000,4.000000,4.000000,4.000000,4.000000,4.000000,4.000000,4.000000,4.000000,4.000000,4.000000,4.000000,4.000000,100.000000,,,,,,,,,,,,,,,,,28.000000,0.000000,0.461159,0.512207,-0.463745,0.556702,1.014176,-0.039063,0.057130,-27.963684,-94.508278,-0.448615
1649282179.496735,113.000000,0.000000,4206.922852,4222.692383,4208.461426,4215.384766,4240.769043,4247.307617,4209.230957,4213.077148,4234.487305,4211.666504,4203.077148,4199.358887,4145.641113,4196.666504,3492.000000,1.000000,15.000000,,,,0.000000,4.000000,4.000000,4.000000,4.000000,4.000000,4.000000,4.000000,4.000000,4.000000,4.000000,4.000000,4.000000,4.000000,4.000000,100.000000,,,,,,,,,,,,,,,,,,,,,,,,,,,,
1649282179.504560,114.000000,0.000000,4225.256348,4241.666504,4230.384766,4230.641113,4226.794922,4251.410156,4227.051270,4225.769043,4289.743652,4233.846191,4213.461426,4219.743652,4168.589844,4212.820313,3602.000000,1.000000,15.000000,,,,0.000000,4.000000,4.000000,4.000000,4.000000,4.000000,4.000000,4.000000,4.000000,4.000000,4.000000,4.000000,4.000000,4.000000,4.000000,100.000000,,,,,,,,,,,,,,,,,,,,,,,,,,,,
1649282179.512386,115.000000,0.000000,4220.769043,4251.794922,4229.743652,4237.948730,4222.051270,4248.974121,4236.410156,4229.102539,4314.102539,4234.871582,4207.179688,4218.717773,4191.282227,4218.717773,3265.000000,1.000000,15.000000,,,,0.000000,4.000000,4.000000,4.000000,4.000000,4.000000,4.000000,4.000000,4.000000,4.000000,4.000000,4.000000,4.000000,4.000000,4.000000,100.000000,,,,,,,,,,,,,,,,,,,,,,,,,,,,
1649282179.520112,116.000000,0.000000,4204.871582,4246.153809,4211.794922,4228.461426,4252.820313,4248.205078,4220.256348,4208.846191,4276.794922,4217.436035,4188.717773,4198.205078,4186.666504,4208.333496,3523.000000,1.000000,15.000000,,,,0.000000,4.000000,4.000000,4.000000,4.000000,4.000000,4.000000,4.000000,4.000000,4.000000,4.000000,4.000000,4.000000,4.000000,4.000000,100.000000,,,,,,,,,,,,,,,,,29.000000,0.000000,0.460962,0.512329,-0.463806,0.556702,1.011246,-0.040040,0.043458,-28.412298,-95.555046,-0.149538
1649282179.528037,117.000000,0.000000,4211.538574,4245.769043,4212.179688,4228.974121,4269.102539,4254.358887,4213.077148,4204.743652,4261.282227,4207.051270,4192.436035,4202.563965,4176.666504,4212.436035,3492.000000,1.000000,15.000000,,,,0.000000,4.000000,4.000000,4.000000,4.000000,4.000000,4.000000,4.000000,4.000000,4.000000,4.000000,4.000000,4.000000,4.000000,4.000000,100.000000,,,,,,,,,,,,,,,,,,,,,,,,,,,,
1649282179.535863,118.000000,0.000000,4223.589844,4244.102539,4224.102539,4238.205078,4227.820313,4253.205078,4226.410156,4214.487305,4265.384766,4213.461426,4208.461426,4215.384766,4178.077148,4219.871582,3602.000000,1.000000,15.000000,,,,0.000000,4.000000,4.000000,4.000000,4.000000,4.000000,4.000000,4.000000,4.000000,4.000000,4.000000,4.000000,4.000000,4.000000,4.000000,100.000000,,,,,,,,,,,,,,,,,,,,,,,,,,,,
1649282179.543688,119.000000,0.000000,4214.487305,4231.282227,4216.538574,4228.846191,4197.051270,4248.077148,4231.922852,4208.461426,4246.922852,4199.102539,4200.128418,4205.384766,4169.615234,4208.077148,3265.000000,1.000000,15.000000,,,,0.000000,4.000000,4.000000,4.000000,4.000000,4.000000,4.000000,4.000000,4.000000,4.000000,4.000000,4.000000,4.000000,4.000000,4.000000,100.000000,,,,,,,,,,,,,,,,,,,,,,,,,,,,
1649282179.551414,120.000000,0.000000,4205.897461,4232.307617,4207.436035,4220.384766,4221.666504,4254.743652,4231.025879,4210.769043,4250.384766,4178.461426,4191.922852,4200.384766,4152.179688,4202.307617,3523.000000,1.000000,15.000000,,,,0.000000,4.000000,4.000000,4.000000,4.000000,4.000000,4.000000,4.000000,4.000000,4.000000,4.000000,4.000000,4.000000,4.000000,4.000000,100.000000,,,,,,,,,,,,,,,,,30.000000,0.000000,0.460943,0.512390,-0.463684,0.556763,1.011734,-0.043458,0.053712,-29.159990,-95.555046,1.196307
1649282179.559340,121.000000,0.000000,4217.436035,4254.615234,4221.410156,4237.563965,4255.000000,4264.102539,4241.410156,4240.384766,4287.692383,4213.717773,4213.205078,4218.461426,4165.897461,4218.589844,3492.000000,1.000000,15.000000,,,,0.000000,4.000000,4.000000,4.000000,4.000000,4.000000,4.000000,4.000000,4.000000,4.000000,4.000000,4.000000,4.000000,4.000000,4.000000,100.000000,,,,,,,,,,,,,,,,,,,,,,,,,,,,
1649282179.567165,122.000000,0.000000,4224.615234,4249.871582,4231.538574,4235.769043,4258.846191,4266.153809,4252.307617,4253.205078,4296.153809,4261.025879,4222.692383,4227.179688,4194.230957,4221.025879,3602.000000,1.000000,15.000000,,,,0.000000,4.000000,4.000000,4.000000,4.000000,4.000000,4.000000,4.000000,4.000000,4.000000,4.000000,4.000000,4.000000,4.000000,4.000000,100.000000,,,,,,,,,,,,,,,,,,,,,,,,,,,,
1649282179.574991,123.000000,0.000000,4211.794922,4220.384766,4217.179688,4209.230957,4237.563965,4264.743652,4245.897461,4237.307617,4288.974121,4254.487305,4199.743652,4217.436035,4188.846191,4206.410156,3265.000000,1.000000,15.000000,,,,0.000000,4.000000,4.000000,4.000000,4.000000,4.000000,4.000000,4.000000,4.000000,4.000000,4.000000,4.000000,4.000000,4.000000,4.000000,100.000000,,,,,,,,,,,,,,,,,,,,,,,,,,,,
1649282179.582716,124.000000,0.000000,4204.743652,4219.230957,4207.820313,4214.358887,4240.000000,4258.717773,4225.000000,4228.333496,4296.538574,4228.589844,4189.743652,4210.384766,4165.000000,4203.077148,3523.000000,1.000000,15.000000,,,,0.000000,4.000000,4.000000,4.000000,4.000000,4.000000,4.000000,4.000000,4.000000,4.000000,4.000000,4.000000,4.000000,4.000000,4.000000,100.000000,,,,,,,,,,,,,,,,,31.000000,0.000000,0.461047,0.512451,-0.463440,0.556824,1.001480,-0.058595,0.048829,-27.664606,-96.003662,0.448615
1649282179.590442,125.000000,0.000000,4220.384766,4240.512695,4223.974121,4235.769043,4245.641113,4255.256348,4215.128418,4229.743652,4282.051270,4218.717773,4212.820313,4219.358887,4172.948730,4216.410156,3492.000000,1.000000,15.000000,,,,0.000000,4.000000,4.000000,4.000000,4.000000,4.000000,4.000000,4.000000,4.000000,4.000000,4.000000,4.000000,4.000000,4.000000,4.000000,100.000000,,,,,,,,,,,,,,,,,,,,,,,,,,,,
1649282179.598268,126.000000,0.000000,4233.717773,4245.512695,4237.051270,4237.307617,4217.692383,4257.948730,4215.512695,4222.948730,4257.692383,4211.922852,4225.384766,4228.589844,4196.666504,4226.410156,3602.000000,1.000000,15.000000,,,,0.000000,4.000000,4.000000,4.000000,4.000000,4.000000,4.000000,4.000000,4.000000,4.000000,4.000000,4.000000,4.000000,4.000000,4.000000,100.000000,,,,,,,,,,,,,,,,,,,,,,,,,,,,
1649282179.606093,127.000000,0.000000,4230.128418,4244.230957,4230.384766,4237.307617,4217.179688,4250.769043,4206.538574,4211.538574,4270.128418,4215.512695,4212.820313,4222.563965,4196.794922,4225.512695,52.000000,1.000000,15.000000,,,,0.000000,4.000000,4.000000,4.000000,4.000000,4.000000,4.000000,4.000000,4.000000,4.000000,4.000000,4.000000,4.000000,4.000000,4.000000,100.000000,,,,,,,,,,,,,,,,,,,,,,,,,,,,
1649282179.613819,0.000000,0.000000,4231.153809,4260.641113,4231.153809,4246.025879,4251.666504,4247.051270,4203.846191,4212.948730,4283.846191,4233.589844,4209.871582,4222.307617,4192.051270,4226.538574,3575.000000,1.000000,15.000000,,,,0.000000,4.000000,4.000000,4.000000,4.000000,4.000000,4.000000,4.000000,4.000000,4.000000,4.000000,4.000000,4.000000,4.000000,4.000000,100.000000,,,,,,,,,,,,,,,,,0.000000,0.000000,0.461144,0.512573,-0.463135,0.556885,1.008316,-0.024903,0.050782,-27.215992,-96.003662,0.448615
1649282179.621544,1.000000,0.000000,4237.051270,4267.948730,4241.282227,4251.666504,4244.102539,4259.615234,4214.871582,4213.846191,4269.102539,4221.410156,4216.794922,4228.461426,4200.897461,4231.153809,3565.000000,1.000000,15.000000,,,,0.000000,4.000000,4.000000,4.000000,4.000000,4.000000,4.000000,4.000000,4.000000,4.000000,4.000000,4.000000,4.000000,4.000000,4.000000,100.000000,,,,,,,,,,,,,,,,,,,,,,,,,,,,
1649282179.629370,2.000000,0.000000,4233.974121,4243.974121,4238.461426,4242.948730,4222.179688,4259.871582,4220.000000,4206.025879,4255.256348,4195.897461,4218.077148,4222.563965,4203.077148,4231.794922,3577.000000,1.000000,15.000000,,,,0.000000,4.000000,4.000000,4.000000,4.000000,4.000000,4.000000,4.000000,4.000000,4.000000,4.000000,4.000000,4.000000,4.000000,4.000000,100.000000,,,,,,,,,,,,,,,,,,,,,,,,,,,,
1649282179.637096,3.000000,0.000000,4229.871582,4233.846191,4231.922852,4230.641113,4245.384766,4250.256348,4225.256348,4208.717773,4261.666504,4212.563965,4214.230957,4218.077148,4194.871582,4226.410156,3585.000000,1.000000,15.000000,,,,0.000000,4.000000,4.000000,4.000000,4.000000,4.000000,4.000000,4.000000,4.000000,4.000000,4.000000,4.000000,4.000000,4.000000,4.000000,100.000000,,,,,,,,,,,,,,,,,,,,,,,,,,,,
1649282179.645021,4.000000,0.000000,4232.948730,4262.051270,4237.436035,4236.922852,4258.461426,4258.717773,4238.717773,4219.743652,4276.025879,4244.871582,4210.769043,4226.538574,4206.794922,4223.333496,3630.000000,1.000000,15.000000,,,,0.000000,4.000000,4.000000,4.000000,4.000000,4.000000,4.000000,4.000000,4.000000,4.000000,4.000000,4.000000,4.000000,4.000000,4.000000,100.000000,,,,,,,,,,,,,,,,,1.000000,0.000000,0.461400,0.512695,-0.462524,0.557068,1.018082,-0.027344,0.036133,-27.963684,-96.003662,0.448615
1649282179.652847,5.000000,0.000000,4234.615234,4268.974121,4238.974121,4250.128418,4233.077148,4264.743652,4236.922852,4222.820313,4282.179688,4239.743652,4210.512695,4230.256348,4218.846191,4230.641113,1734.000000,1.000000,15.000000,,,,0.000000,4.000000,4.000000,4.000000,4.000000,4.000000,4.000000,4.000000,4.000000,4.000000,4.000000,4.000000,4.000000,4.000000,4.000000,100.000000,,,,,,,,,,,,,,,,,,,,,,,,,,,,
1649282179.660672,6.000000,0.000000,4228.077148,4244.871582,4228.974121,4246.410156,4224.487305,4254.358887,4226.025879,4215.256348,4267.436035,4216.025879,4213.846191,4223.717773,4199.871582,4232.307617,3644.000000,1.000000,15.000000,,,,0.000000,4.000000,4.000000,4.000000,4.000000,4.000000,4.000000,4.000000,4.000000,4.000000,4.000000,4.000000,4.000000,4.000000,4.000000,100.000000,,,,,,,,,,,,,,,,,,,,,,,,,,,,
1649282179.668398,7.000000,0.000000,4228.077148,4254.102539,4231.153809,4243.846191,4240.641113,4253.589844,4227.820313,4214.358887,4256.666504,4216.666504,4221.153809,4228.205078,4202.436035,4229.487305,3576.000000,1.000000,15.000000,,,,0.000000,4.000000,4.000000,4.000000,4.000000,4.000000,4.000000,4.000000,4.000000,4.000000,4.000000,4.000000,4.000000,4.000000,4.000000,100.000000,1.000000,58.333332,4.000000,3.000000,4.000000,4.000000,1.000000,4.000000,4.000000,4.000000,3.000000,3.000000,4.000000,4.000000,3.000000,4.000000,,,,,,,,,,,,
1649282179.676324,8.000000,0.000000,4241.410156,4269.487305,4247.563965,4249.230957,4243.077148,4263.333496,4232.563965,4226.025879,4271.153809,4222.307617,4234.358887,4239.615234,4228.846191,4236.025879,3528.000000,1.000000,15.000000,,,,0.000000,4.000000,4.000000,4.000000,4.000000,4.000000,4.000000,4.000000,4.000000,4.000000,4.000000,4.000000,4.000000,4.000000,4.000000,100.000000,,,,,,,,,,,,,,,,,2.000000,0.000000,0.461251,0.512695,-0.462158,0.557495,1.009781,-0.031739,0.050782,-28.561836,-96.153198,1.046769
1649282179.684149,9.000000,0.000000,4244.615234,4250.641113,4249.358887,4242.692383,4246.666504,4265.512695,4241.538574,4230.384766,4279.487305,4220.512695,4235.641113,4237.948730,4226.025879,4241.666504,3611.000000,1.000000,15.000000,,,,0.000000,4.000000,4.000000,4.000000,4.000000,4.000000,4.000000,4.000000,4.000000,4.000000,4.000000,4.000000,4.000000,4.000000,4.000000,100.000000,,,,,,,,,,,,,,,,,,,,,,,,,,,,
1649282179.691975,10.000000,0.000000,4233.846191,4242.436035,4237.179688,4240.128418,4264.615234,4264.102539,4249.487305,4227.179688,4272.563965,4227.179688,4223.205078,4230.000000,4212.307617,4240.769043,3642.000000,1.000000,15.000000,,,,0.000000,4.000000,4.000000,4.000000,4.000000,4.000000,4.000000,4.000000,4.000000,4.000000,4.000000,4.000000,4.000000,4.000000,4.000000,100.000000,,,,,,,,,,,,,,,,,,,,,,,,,,,,
1649282179.699701,11.000000,0.000000,4235.000000,4250.256348,4237.692383,4242.563965,4252.820313,4263.205078,4243.974121,4236.538574,4276.282227,4236.666504,4224.358887,4238.205078,4216.410156,4244.230957,3292.000000,1.000000,15.000000,,,,0.000000,4.000000,4.000000,4.000000,4.000000,4.000000,4.000000,4.000000,4.000000,4.000000,4.000000,4.000000,4.000000,4.000000,4.000000,100.000000,,,,,,,,,,,,,,,,,,,,,,,,,,,,
1649282179.707626,12.000000,0.000000,4245.897461,4248.974121,4249.230957,4241.410156,4224.358887,4262.820313,4241.794922,4244.871582,4282.307617,4238.205078,4238.461426,4251.025879,4223.846191,4247.179688,3556.000000,1.000000,15.000000,,,,0.000000,4.000000,4.000000,4.000000,4.000000,4.000000,4.000000,4.000000,4.000000,4.000000,4.000000,4.000000,4.000000,4.000000,4.000000,100.000000,,,,,,,,,,,,,,,,,3.000000,0.000000,0.461110,0.512634,-0.462219,0.557617,1.014664,-0.040528,0.040528,-29.010452,-96.452278,-0.598154
1649282179.715452,13.000000,0.000000,4246.282227,4261.922852,4248.589844,4250.897461,4239.487305,4263.846191,4245.769043,4232.948730,4272.563965,4229.102539,4235.897461,4244.102539,4224.230957,4242.948730,3517.000000,1.000000,15.000000,,,,0.000000,4.000000,4.000000,4.000000,4.000000,4.000000,4.000000,4.000000,4.000000,4.000000,4.000000,4.000000,4.000000,4.000000,4.000000,100.000000,,,,,,,,,,,,,,,,,,,,,,,,,,,,
1649282179.723277,14.000000,0.000000,4242.820313,4282.051270,4245.641113,4263.333496,4271.282227,4264.743652,4240.769043,4225.384766,4263.077148,4226.538574,4217.692383,4232.179688,4221.538574,4240.000000,3642.000000,1.000000,15.000000,,,,0.000000,4.000000,4.000000,4.000000,4.000000,4.000000,4.000000,4.000000,4.000000,4.000000,4.000000,4.000000,4.000000,4.000000,4.000000,100.000000,,,,,,,,,,,,,,,,,,,,,,,,,,,,
1649282179.731003,15.000000,0.000000,4251.666504,4281.538574,4256.666504,4264.743652,4271.538574,4262.820313,4236.922852,4236.282227,4266.922852,4229.871582,4218.974121,4241.794922,4211.794922,4246.666504,3292.000000,1.000000,15.000000,,,,0.000000,4.000000,4.000000,4.000000,4.000000,4.000000,4.000000,4.000000,4.000000,4.000000,4.000000,4.000000,4.000000,4.000000,4.000000,100.000000,,,,,,,,,,,,,,,,,,,,,,,,,,,,
1649282179.738929,16.000000,0.000000,4263.333496,4280.256348,4268.333496,4264.487305,4258.461426,4262.563965,4244.230957,4246.922852,4277.820313,4241.153809,4240.769043,4260.769043,4212.563965,4257.307617,0.000000,1.000000,15.000000,,,,0.000000,4.000000,4.000000,4.000000,4.000000,4.000000,4.000000,4.000000,4.000000,4.000000,4.000000,4.000000,4.000000,4.000000,4.000000,100.000000,,,,,,,,,,,,,,,,,4.000000,0.000000,0.460927,0.512634,-0.462402,0.557617,1.023941,-0.045411,0.049805,-28.412298,-95.255974,0.448615
1649282179.746754,17.000000,0.000000,4261.410156,4283.333496,4264.358887,4266.153809,4245.641113,4264.743652,4252.692383,4254.358887,4281.410156,4248.205078,4246.410156,4259.487305,4224.743652,4258.461426,0.000000,1.000000,15.000000,,,,0.000000,4.000000,4.000000,4.000000,4.000000,4.000000,4.000000,4.000000,4.000000,4.000000,4.000000,4.000000,4.000000,4.000000,4.000000,100.000000,,,,,,,,,,,,,,,,,,,,,,,,,,,,
1649282179.754580,18.000000,0.000000,4244.743652,4270.641113,4249.102539,4256.794922,4247.948730,4264.487305,4245.000000,4253.974121,4262.820313,4224.230957,4227.692383,4240.128418,4221.410156,4242.948730,0.000000,1.000000,15.000000,,,,0.000000,4.000000,4.000000,4.000000,4.000000,4.000000,4.000000,4.000000,4.000000,4.000000,4.000000,4.000000,4.000000,4.000000,4.000000,100.000000,,,,,,,,,,,,,,,,,,,,,,,,,,,,
1649282179.762305,19.000000,0.000000,4232.436035,4257.563965,4241.794922,4250.000000,4256.025879,4262.051270,4230.897461,4242.692383,4247.948730,4212.948730,4216.794922,4228.589844,4203.846191,4232.563965,0.000000,1.000000,15.000000,,,,0.000000,4.000000,4.000000,4.000000,4.000000,4.000000,4.000000,4.000000,4.000000,4.000000,4.000000,4.000000,4.000000,4.000000,4.000000,100.000000,,,,,,,,,,,,,,,,,,,,,,,,,,,,
1649282179.770231,20.000000,0.000000,4236.666504,4262.820313,4246.922852,4253.717773,4228.974121,4264.358887,4239.230957,4243.717773,4259.358887,4250.769043,4226.282227,4235.512695,4195.000000,4245.256348,0.000000,1.000000,15.000000,,,,0.000000,4.000000,4.000000,4.000000,4.000000,4.000000,4.000000,4.000000,4.000000,4.000000,4.000000,4.000000,4.000000,4.000000,4.000000,100.000000,,,,,,,,,,,,,,,,,5.000000,0.000000,0.461006,0.512817,-0.462341,0.557434,1.021012,-0.043458,0.039551,-28.262760,-94.358742,0.299077
1649282179.778156,21.000000,0.000000,4237.307617,4267.436035,4247.436035,4252.051270,4224.487305,4266.538574,4255.641113,4248.974121,4268.077148,4258.333496,4233.717773,4238.205078,4207.051270,4249.230957,0.000000,1.000000,15.000000,,,,0.000000,4.000000,4.000000,4.000000,4.000000,4.000000,4.000000,4.000000,4.000000,4.000000,4.000000,4.000000,4.000000,4.000000,4.000000,100.000000,,,,,,,,,,,,,,,,,,,,,,,,,,,,
1649282179.785982,22.000000,0.000000,4231.666504,4261.922852,4242.179688,4246.922852,4270.897461,4264.487305,4249.230957,4237.436035,4258.846191,4212.563965,4229.615234,4230.000000,4217.179688,4232.820313,0.000000,1.000000,15.000000,,,,0.000000,4.000000,4.000000,4.000000,4.000000,4.000000,4.000000,4.000000,4.000000,4.000000,4.000000,4.000000,4.000000,4.000000,4.000000,100.000000,,,,,,,,,,,,,,,,,,,,,,,,,,,,
1649282179.793808,23.000000,0.000000,4238.974121,4266.025879,4245.384766,4248.974121,4285.256348,4268.846191,4243.589844,4228.974121,4261.282227,4208.461426,4229.871582,4237.051270,4214.358887,4234.358887,0.000000,1.000000,15.000000,,,,0.000000,4.000000,4.000000,4.000000,4.000000,4.000000,4.000000,4.000000,4.000000,4.000000,4.000000,4.000000,4.000000,4.000000,4.000000,100.000000,,,,,,,,,,,,,,,,,,,,,,,,,,,,
1649282179.801533,24.000000,0.000000,4248.205078,4282.563965,4253.333496,4258.461426,4257.307617,4273.717773,4245.769043,4232.179688,4270.128418,4242.051270,4233.717773,4248.846191,4215.512695,4251.025879,0.000000,1.000000,15.000000,,,,0.000000,4.000000,4.000000,4.000000,4.000000,4.000000,4.000000,4.000000,4.000000,4.000000,4.000000,4.000000,4.000000,4.000000,4.000000,100.000000,,,,,,,,,,,,,,,,,6.000000,0.000000,0.460867,0.513306,-0.462158,0.557251,0.997086,-0.035645,0.038575,-27.365530,-93.611046,1.046769
1649282179.809459,25.000000,0.000000,4238.205078,4283.589844,4244.743652,4265.256348,4253.974121,4266.538574,4236.153809,4226.922852,4257.692383,4234.487305,4221.538574,4236.794922,4220.384766,4242.563965,0.000000,1.000000,15.000000,,,,0.000000,4.000000,4.000000,4.000000,4.000000,4.000000,4.000000,4.000000,4.000000,4.000000,4.000000,4.000000,4.000000,4.000000,4.000000,100.000000,,,,,,,,,,,,,,,,,,,,,,,,,,,,
1649282179.817284,26.000000,0.000000,4229.230957,4262.820313,4237.307617,4261.025879,4267.307617,4263.974121,4238.846191,4226.794922,4245.384766,4221.025879,4212.692383,4225.384766,4219.230957,4227.436035,0.000000,1.000000,15.000000,,,,0.000000,4.000000,4.000000,4.000000,4.000000,4.000000,4.000000,4.000000,4.000000,4.000000,4.000000,4.000000,4.000000,4.000000,4.000000,100.000000,,,,,,,,,,,,,,,,,,,,,,,,,,,,
1649282179.825110,27.000000,0.000000,4232.820313,4243.717773,4239.487305,4242.692383,4258.205078,4268.205078,4250.512695,4233.205078,4243.974121,4233.333496,4216.922852,4230.641113,4204.358887,4226.922852,0.000000,1.000000,15.000000,,,,0.000000,4.000000,4.000000,4.000000,4.000000,4.000000,4.000000,4.000000,4.000000,4.000000,4.000000,4.000000,4.000000,4.000000,4.000000,100.000000,,,,,,,,,,,,,,,,,,,,,,,,,,,,
1649282179.832836,28.000000,0.000000,4230.769043,4249.743652,4237.307617,4238.205078,4233.846191,4268.846191,4251.410156,4235.512695,4244.230957,4223.846191,4215.384766,4231.410156,4193.461426,4224.102539,0.000000,1.000000,15.000000,,,,0.000000,4.000000,4.000000,4.000000,4.000000,4.000000,4.000000,4.000000,4.000000,4.000000,4.000000,4.000000,4.000000,4.000000,4.000000,100.000000,,,,,,,,,,,,,,,,,7.000000,0.000000,0.460783,0.513733,-0.461914,0.557129,1.004898,-0.017090,0.039063,-27.664606,-94.807358,0.448615
1649282179.840761,29.000000,0.000000,4229.358887,4281.666504,4239.871582,4262.820313,4222.307617,4271.410156,4255.256348,4246.794922,4254.487305,4209.487305,4219.230957,4233.974121,4212.179688,4232.051270,0.000000,1.000000,15.000000,,,,0.000000,4.000000,4.000000,4.000000,4.000000,4.000000,4.000000,4.000000,4.000000,4.000000,4.000000,4.000000,4.000000,4.000000,4.000000,100.000000,,,,,,,,,,,,,,,,,,,,,,,,,,,,
1649282179.848587,30.000000,0.000000,4236.410156,4290.769043,4249.871582,4272.563965,4245.897461,4272.179688,4258.846191,4252.179688,4266.410156,4219.743652,4231.666504,4242.179688,4236.410156,4246.538574,0.000000,1.000000,15.000000,,,,0.000000,4.000000,4.000000,4.000000,4.000000,4.000000,4.000000,4.000000,4.000000,4.000000,4.000000,4.000000,4.000000,4.000000,4.000000,100.000000,,,,,,,,,,,,,,,,,,,,,,,,,,,,
1649282179.856412,31.000000,0.000000,4229.487305,4251.153809,4241.410156,4245.512695,4271.666504,4264.743652,4248.205078,4232.948730,4251.922852,4207.051270,4223.461426,4226.794922,4216.025879,4230.128418,0.000000,1.000000,15.000000,,,,0.000000,4.000000,4.000000,4.000000,4.000000,4.000000,4.000000,4.000000,4.000000,4.000000,4.000000,4.000000,4.000000,4.000000,4.000000,100.000000,,,,,,,,,,,,,,,,,,,,,,,,,,,,
1649282179.864138,32.000000,0.000000,4218.589844,4235.000000,4227.563965,4231.538574,4255.128418,4263.077148,4240.256348,4225.769043,4239.102539,4196.922852,4202.179688,4210.256348,4193.461426,4210.384766,0.000000,1.000000,15.000000,,,,0.000000,4.000000,4.000000,4.000000,4.000000,4.000000,4.000000,4.000000,4.000000,4.000000,4.000000,4.000000,4.000000,4.000000,4.000000,100.000000,,,,,,,,,,,,,,,,,8.000000,0.000000,0.460671,0.513977,-0.461975,0.556946,1.010758,-0.035645,0.036133,-27.664606,-94.807358,0.897231
1649282179.872064,33.000000,0.000000,4225.769043,4268.461426,4238.333496,4251.410156,4236.025879,4268.205078,4250.384766,4243.846191,4257.948730,4231.922852,4211.922852,4223.974121,4223.846191,4226.410156,0.000000,1.000000,15.000000,,,,0.000000,4.000000,4.000000,4.000000,4.000000,4.000000,4.000000,4.000000,4.000000,4.000000,4.000000,4.000000,4.000000,4.000000,4.000000,100.000000,,,,,,,,,,,,,,,,,,,,,,,,,,,,
1649282179.879889,34.000000,0.000000,4234.487305,4277.692383,4250.641113,4257.179688,4268.077148,4267.692383,4252.820313,4250.769043,4256.153809,4253.717773,4241.153809,4239.743652,4242.820313,4245.000000,0.000000,1.000000,15.000000,,,,0.000000,4.000000,4.000000,4.000000,4.000000,4.000000,4.000000,4.000000,4.000000,4.000000,4.000000,4.000000,4.000000,4.000000,4.000000,100.000000,,,,,,,,,,,,,,,,,,,,,,,,,,,,
1649282179.887715,35.000000,0.000000,4232.563965,4262.563965,4248.846191,4250.128418,4288.974121,4265.384766,4239.487305,4246.666504,4236.794922,4235.128418,4240.128418,4236.538574,4217.692383,4245.512695,0.000000,1.000000,15.000000,,,,0.000000,4.000000,4.000000,4.000000,4.000000,4.000000,4.000000,4.000000,4.000000,4.000000,4.000000,4.000000,4.000000,4.000000,4.000000,100.000000,,,,,,,,,,,,,,,,,,,,,,,,,,,,
1649282179.895441,36.000000,0.000000,4231.794922,4272.179688,4247.563965,4256.025879,4249.102539,4264.358887,4234.102539,4242.820313,4241.666504,4219.615234,4216.153809,4229.871582,4215.256348,4243.846191,0.000000,1.000000,15.000000,,,,0.000000,4.000000,4.000000,4.000000,4.000000,4.000000,4.000000,4.000000,4.000000,4.000000,4.000000,4.000000,4.000000,4.000000,4.000000,100.000000,,,,,,,,,,,,,,,,,9.000000,0.000000,0.460634,0.514099,-0.462097,0.556763,1.008316,-0.038575,0.047852,-26.169222,-93.311974,0.000000
1649282179.903366,37.000000,0.000000,4238.077148,4286.153809,4253.461426,4264.487305,4228.205078,4263.974121,4248.077148,4240.512695,4253.974121,4227.948730,4217.051270,4235.897461,4245.512695,4245.256348,0.000000,1.000000,15.000000,,,,0.000000,4.000000,4.000000,4.000000,4.000000,4.000000,4.000000,4.000000,4.000000,4.000000,4.000000,4.000000,4.000000,4.000000,4.000000,100.000000,,,,,,,,,,,,,,,,,,,,,,,,,,,,
1649282179.911192,38.000000,0.000000,4245.897461,4287.051270,4261.153809,4275.000000,4252.436035,4267.436035,4254.871582,4245.512695,4254.615234,4230.769043,4246.794922,4248.846191,4258.077148,4254.230957,0.000000,1.000000,15.000000,,,,0.000000,4.000000,4.000000,4.000000,4.000000,4.000000,4.000000,4.000000,4.000000,4.000000,4.000000,4.000000,4.000000,4.000000,4.000000,100.000000,,,,,,,,,,,,,,,,,,,,,,,,,,,,
1649282179.919017,39.000000,0.000000,4248.589844,4280.256348,4261.922852,4271.666504,4260.128418,4264.871582,4241.538574,4245.128418,4248.461426,4223.461426,4260.769043,4252.692383,4246.282227,4260.000000,0.000000,1.000000,15.000000,,,,0.000000,4.000000,4.000000,4.000000,4.000000,4.000000,4.000000,4.000000,4.000000,4.000000,4.000000,4.000000,4.000000,4.000000,4.000000,100.000000,,,,,,,,,,,,,,,,,,,,,,,,,,,,
1649282179.926743,40.000000,0.000000,4248.589844,4263.717773,4261.666504,4252.051270,4238.589844,4260.000000,4239.743652,4236.666504,4241.666504,4229.487305,4255.128418,4250.769043,4236.410156,4252.307617,0.000000,1.000000,15.000000,,,,0.000000,4.000000,4.000000,4.000000,4.000000,4.000000,4.000000,4.000000,4.000000,4.000000,4.000000,4.000000,4.000000,4.000000,4.000000,100.000000,,,,,,,,,,,,,,,,,10.000000,0.000000,0.460695,0.514221,-0.462341,0.556396,1.004410,-0.034180,0.036133,-27.664606,-94.807358,0.149538
1649282179.934669,41.000000,0.000000,4241.410156,4260.128418,4255.256348,4250.641113,4240.384766,4260.897461,4245.769043,4228.461426,4228.333496,4234.358887,4242.051270,4243.717773,4231.794922,4244.487305,0.000000,1.000000,15.000000,,,,0.000000,4.000000,4.000000,4.000000,4.000000,4.000000,4.000000,4.000000,4.000000,4.000000,4.000000,4.000000,4.000000,4.000000,4.000000,100.000000,,,,,,,,,,,,,,,,,,,,,,,,,,,,
1649282179.942494,42.000000,0.000000,4233.589844,4275.641113,4246.538574,4262.692383,4263.974121,4262.436035,4244.230957,4231.410156,4225.641113,4227.948730,4231.153809,4235.000000,4237.820313,4246.538574,0.000000,1.000000,15.000000,,,,0.000000,4.000000,4.000000,4.000000,4.000000,4.000000,4.000000,4.000000,4.000000,4.000000,4.000000,4.000000,4.000000,4.000000,4.000000,100.000000,,,,,,,,,,,,,,,,,,,,,,,,,,,,
1649282179.950320,43.000000,0.000000,4239.487305,4274.487305,4252.692383,4256.025879,4255.128418,4260.769043,4245.512695,4238.974121,4235.256348,4231.794922,4237.307617,4237.948730,4248.461426,4250.512695,0.000000,1.000000,15.000000,,,,0.000000,4.000000,4.000000,4.000000,4.000000,4.000000,4.000000,4.000000,4.000000,4.000000,4.000000,4.000000,4.000000,4.000000,4.000000,100.000000,,,,,,,,,,,,,,,,,,,,,,,,,,,,
1649282179.958145,44.000000,0.000000,4248.205078,4259.102539,4261.922852,4245.512695,4224.230957,4259.871582,4246.282227,4235.512695,4235.000000,4231.922852,4246.794922,4247.051270,4242.692383,4249.871582,0.000000,1.000000,15.000000,,,,0.000000,4.000000,4.000000,4.000000,4.000000,4.000000,4.000000,4.000000,4.000000,4.000000,4.000000,4.000000,4.000000,4.000000,4.000000,100.000000,,,,,,,,,,,,,,,,,11.000000,0.000000,0.460812,0.514282,-0.462524,0.556091,1.009781,-0.021973,0.041016,-28.561836,-94.657814,1.345846
1649282179.965971,45.000000,0.000000,4244.615234,4261.538574,4258.461426,4247.051270,4239.230957,4261.538574,4243.717773,4225.384766,4237.179688,4225.000000,4242.436035,4243.974121,4237.820313,4248.205078,0.000000,1.000000,15.000000,,,,0.000000,4.000000,4.000000,4.000000,4.000000,4.000000,4.000000,4.000000,4.000000,4.000000,4.000000,4.000000,4.000000,4.000000,4.000000,100.000000,,,,,,,,,,,,,,,,,,,,,,,,,,,,
1649282179.973797,46.000000,0.000000,4244.871582,4267.563965,4258.974121,4247.820313,4276.410156,4263.205078,4244.743652,4227.436035,4251.410156,4243.077148,4240.128418,4242.051270,4248.205078,4250.641113,0.000000,1.000000,15.000000,,,,0.000000,4.000000,4.000000,4.000000,4.000000,4.000000,4.000000,4.000000,4.000000,4.000000,4.000000,4.000000,4.000000,4.000000,4.000000,100.000000,,,,,,,,,,,,,,,,,,,,,,,,,,,,
1649282179.981722,47.000000,0.000000,4252.820313,4262.436035,4267.563965,4255.769043,4259.358887,4264.871582,4248.717773,4240.769043,4245.769043,4248.077148,4248.589844,4248.589844,4249.102539,4255.384766,0.000000,1.000000,15.000000,,,,0.000000,4.000000,4.000000,4.000000,4.000000,4.000000,4.000000,4.000000,4.000000,4.000000,4.000000,4.000000,4.000000,4.000000,4.000000,100.000000,,,,,,,,,,,,,,,,,,,,,,,,,,,,
1649282179.989648,48.000000,0.000000,4252.692383,4270.000000,4266.025879,4267.051270,4229.615234,4264.615234,4246.794922,4245.641113,4226.153809,4225.641113,4249.230957,4249.615234,4244.743652,4256.025879,0.000000,1.000000,15.000000,,,,0.000000,4.000000,4.000000,4.000000,4.000000,4.000000,4.000000,4.000000,4.000000,4.000000,4.000000,4.000000,4.000000,4.000000,4.000000,100.000000,,,,,,,,,,,,,,,,,12.000000,0.000000,0.460843,0.514221,-0.462708,0.555969,1.022477,-0.022461,0.038575,-27.365530,-96.900894,-0.299077
1649282179.997473,49.000000,0.000000,4248.846191,4282.820313,4263.333496,4265.897461,4239.615234,4261.794922,4245.769043,4245.256348,4240.128418,4241.538574,4243.333496,4247.820313,4254.743652,4253.589844,0.000000,1.000000,15.000000,,,,0.000000,4.000000,4.000000,4.000000,4.000000,4.000000,4.000000,4.000000,4.000000,4.000000,4.000000,4.000000,4.000000,4.000000,4.000000,100.000000,,,,,,,,,,,,,,,,,,,,,,,,,,,,
1649282180.005299,50.000000,0.000000,4248.333496,4276.538574,4262.436035,4263.077148,4270.641113,4263.461426,4249.487305,4251.666504,4263.461426,4267.307617,4247.051270,4250.384766,4260.641113,4252.563965,0.000000,1.000000,15.000000,,,,0.000000,4.000000,4.000000,4.000000,4.000000,4.000000,4.000000,4.000000,4.000000,4.000000,4.000000,4.000000,4.000000,4.000000,4.000000,100.000000,,,,,,,,,,,,,,,,,,,,,,,,,,,,
1649282180.013025,51.000000,0.000000,4241.410156,4261.666504,4252.692383,4256.410156,4265.897461,4265.641113,4244.487305,4247.948730,4245.384766,4240.641113,4246.538574,4247.179688,4248.461426,4246.282227,0.000000,1.000000,15.000000,,,,0.000000,4.000000,4.000000,4.000000,4.000000,4.000000,4.000000,4.000000,4.000000,4.000000,4.000000,4.000000,4.000000,4.000000,4.000000,100.000000,,,,,,,,,,,,,,,,,,,,,,,,,,,,
1649282180.020950,52.000000,0.000000,4242.563965,4262.051270,4251.410156,4252.051270,4227.692383,4262.307617,4238.974121,4243.205078,4233.717773,4226.410156,4242.051270,4243.205078,4244.743652,4244.871582,0.000000,1.000000,15.000000,,,,0.000000,4.000000,4.000000,4.000000,4.000000,4.000000,4.000000,4.000000,4.000000,4.000000,4.000000,4.000000,4.000000,4.000000,4.000000,100.000000,,,,,,,,,,,,,,,,,13.000000,0.000000,0.460856,0.514221,-0.462769,0.555908,1.014664,-0.046387,0.054688,-27.066454,-95.405510,1.046769
1649282180.028776,53.000000,0.000000,4256.922852,4271.794922,4265.641113,4260.256348,4245.641113,4260.000000,4245.000000,4257.179688,4263.333496,4256.922852,4245.512695,4247.948730,4260.384766,4254.358887,0.000000,1.000000,15.000000,,,,0.000000,4.000000,4.000000,4.000000,4.000000,4.000000,4.000000,4.000000,4.000000,4.000000,4.000000,4.000000,4.000000,4.000000,4.000000,100.000000,,,,,,,,,,,,,,,,,,,,,,,,,,,,
1649282180.036601,54.000000,0.000000,4260.000000,4272.051270,4271.538574,4261.794922,4296.025879,4263.589844,4250.256348,4263.589844,4279.230957,4260.128418,4249.743652,4253.461426,4265.384766,4257.051270,0.000000,1.000000,15.000000,,,,0.000000,4.000000,4.000000,4.000000,4.000000,4.000000,4.000000,4.000000,4.000000,4.000000,4.000000,4.000000,4.000000,4.000000,4.000000,100.000000,,,,,,,,,,,,,,,,,,,,,,,,,,,,
1649282180.044327,55.000000,0.000000,4247.948730,4262.307617,4260.897461,4248.461426,4270.769043,4263.717773,4241.282227,4239.743652,4249.102539,4226.794922,4243.461426,4247.692383,4238.461426,4246.922852,0.000000,1.000000,15.000000,,,,0.000000,4.000000,4.000000,4.000000,4.000000,4.000000,4.000000,4.000000,4.000000,4.000000,4.000000,4.000000,4.000000,4.000000,4.000000,100.000000,,,,,,,,,,,,,,,,,,,,,,,,,,,,
1649282180.052253,56.000000,0.000000,4239.358887,4258.974121,4247.051270,4243.974121,4220.128418,4258.717773,4228.717773,4214.871582,4226.666504,4212.820313,4227.948730,4231.410156,4221.922852,4237.051270,0.000000,1.000000,15.000000,,,,0.000000,4.000000,4.000000,4.000000,4.000000,4.000000,4.000000,4.000000,4.000000,4.000000,4.000000,4.000000,4.000000,4.000000,4.000000,100.000000,,,,,,,,,,,,,,,,,14.000000,0.000000,0.461097,0.514038,-0.462952,0.555725,1.014664,-0.026368,0.041993,-27.664606,-96.003662,-0.149538
1649282180.060078,57.000000,0.000000,4232.563965,4266.410156,4237.948730,4254.358887,4235.256348,4260.256348,4230.769043,4217.948730,4232.307617,4221.666504,4209.230957,4219.102539,4232.948730,4228.717773,0.000000,1.000000,15.000000,,,,0.000000,4.000000,4.000000,4.000000,4.000000,4.000000,4.000000,4.000000,4.000000,4.000000,4.000000,4.000000,4.000000,4.000000,4.000000,100.000000,,,,,,,,,,,,,,,,,,,,,,,,,,,,
1649282180.067904,58.000000,0.000000,4215.897461,4260.512695,4229.743652,4249.487305,4256.922852,4263.717773,4237.307617,4226.538574,4223.205078,4214.230957,4193.333496,4212.051270,4221.666504,4211.666504,0.000000,1.000000,15.000000,,,,0.000000,4.000000,4.000000,4.000000,4.000000,4.000000,4.000000,4.000000,4.000000,4.000000,4.000000,4.000000,4.000000,4.000000,4.000000,100.000000,,,,,,,,,,,,,,,,,,,,,,,,,,,,
1649282180.075630,59.000000,0.000000,4209.230957,4240.512695,4224.743652,4226.922852,4240.897461,4261.282227,4232.051270,4229.871582,4210.384766,4207.563965,4195.512695,4208.846191,4207.307617,4207.820313,0.000000,1.000000,15.000000,,,,0.000000,4.000000,4.000000,4.000000,4.000000,4.000000,4.000000,4.000000,4.000000,4.000000,4.000000,4.000000,4.000000,4.000000,4.000000,100.000000,,,,,,,,,,,,,,,,,,,,,,,,,,,,
1649282180.083555,60.000000,0.000000,4230.384766,4241.666504,4236.153809,4227.179688,4230.641113,4261.410156,4233.846191,4242.563965,4232.692383,4233.077148,4226.922852,4228.589844,4250.128418,4238.589844,0.000000,1.000000,15.000000,,,,0.000000,4.000000,4.000000,4.000000,4.000000,4.000000,4.000000,4.000000,4.000000,4.000000,4.000000,4.000000,4.000000,4.000000,4.000000,100.000000,,,,,,,,,,,,,,,,,15.000000,0.000000,0.461509,0.513855,-0.463257,0.555298,1.010269,-0.043458,0.047364,-26.767376,-93.760590,1.644923
1649282180.091381,61.000000,0.000000,4251.538574,4259.102539,4258.717773,4247.051270,4234.102539,4266.025879,4252.948730,4250.128418,4260.769043,4255.897461,4257.307617,4255.897461,4302.692383,4266.410156,0.000000,1.000000,15.000000,,,,0.000000,4.000000,4.000000,4.000000,4.000000,4.000000,4.000000,4.000000,4.000000,4.000000,4.000000,4.000000,4.000000,4.000000,4.000000,100.000000,,,,,,,,,,,,,,,,,,,,,,,,,,,,
1649282180.099206,62.000000,0.000000,4254.487305,4256.794922,4267.307617,4248.717773,4241.025879,4267.179688,4254.743652,4243.589844,4256.025879,4250.128418,4265.512695,4257.563965,4307.820313,4267.948730,0.000000,1.000000,15.000000,,,,0.000000,4.000000,4.000000,4.000000,4.000000,4.000000,4.000000,4.000000,4.000000,4.000000,4.000000,4.000000,4.000000,4.000000,4.000000,100.000000,,,,,,,,,,,,,,,,,,,,,,,,,,,,
1649282180.106932,63.000000,0.000000,4247.051270,4234.615234,4260.128418,4232.179688,4240.897461,4263.974121,4236.025879,4244.487305,4238.717773,4249.358887,4269.230957,4247.948730,4306.025879,4264.487305,0.000000,1.000000,15.000000,,,,0.000000,4.000000,4.000000,4.000000,4.000000,4.000000,4.000000,4.000000,4.000000,4.000000,4.000000,4.000000,4.000000,4.000000,4.000000,100.000000,,,,,,,,,,,,,,,,,,,,,,,,,,,,
1649282180.114857,64.000000,0.000000,4238.205078,4224.102539,4246.794922,4224.230957,4246.922852,4264.871582,4236.538574,4257.051270,4253.589844,4271.922852,4273.333496,4248.974121,4338.333496,4263.717773,3571.000000,1.000000,15.000000,,,,0.000000,4.000000,4.000000,4.000000,4.000000,4.000000,4.000000,4.000000,4.000000,4.000000,4.000000,4.000000,4.000000,4.000000,4.000000,100.000000,,,,,,,,,,,,,,,,,16.000000,0.000000,0.461944,0.513672,-0.463684,0.554749,1.013687,-0.035645,0.036133,-27.365530,-96.153198,-0.299077
1649282180.122783,65.000000,0.000000,4227.692383,4220.641113,4234.230957,4218.461426,4262.307617,4268.077148,4248.717773,4254.102539,4270.000000,4279.230957,4269.615234,4247.179688,4361.025879,4259.358887,3538.000000,1.000000,15.000000,,,,0.000000,4.000000,4.000000,4.000000,4.000000,4.000000,4.000000,4.000000,4.000000,4.000000,4.000000,4.000000,4.000000,4.000000,4.000000,100.000000,,,,,,,,,,,,,,,,,,,,,,,,,,,,
1649282180.130609,66.000000,0.000000,4226.538574,4199.230957,4234.743652,4202.948730,4236.410156,4265.256348,4245.769043,4243.461426,4249.871582,4255.000000,4268.461426,4241.410156,4340.256348,4258.846191,3572.000000,1.000000,15.000000,,,,0.000000,4.000000,4.000000,4.000000,4.000000,4.000000,4.000000,4.000000,4.000000,4.000000,4.000000,4.000000,4.000000,4.000000,4.000000,100.000000,,,,,,,,,,,,,,,,,,,,,,,,,,,,
1649282180.138434,67.000000,0.000000,4237.307617,4192.051270,4247.436035,4202.179688,4208.846191,4263.205078,4241.410156,4253.461426,4245.641113,4251.666504,4280.000000,4246.922852,4335.000000,4265.000000,3571.000000,1.000000,15.000000,,,,0.000000,4.000000,4.000000,4.000000,4.000000,4.000000,4.000000,4.000000,4.000000,4.000000,4.000000,4.000000,4.000000,4.000000,4.000000,100.000000,,,,,,,,,,,,,,,,,,,,,,,,,,,,
1649282180.146260,68.000000,0.000000,4246.666504,4226.153809,4258.717773,4219.871582,4241.538574,4264.358887,4249.230957,4267.563965,4279.102539,4290.641113,4295.000000,4260.000000,4361.538574,4274.102539,3563.000000,1.000000,15.000000,,,,0.000000,4.000000,4.000000,4.000000,4.000000,4.000000,4.000000,4.000000,4.000000,4.000000,4.000000,4.000000,4.000000,4.000000,4.000000,100.000000,,,,,,,,,,,,,,,,,17.000000,0.000000,0.462390,0.513489,-0.464172,0.554138,1.011734,-0.030762,0.035157,-27.215992,-94.807358,0.897231
1649282180.154185,69.000000,0.000000,4250.000000,4238.461426,4260.897461,4219.615234,4261.666504,4265.512695,4261.538574,4266.410156,4285.128418,4310.641113,4296.666504,4265.384766,4358.333496,4278.077148,1718.000000,1.000000,15.000000,,,,0.000000,4.000000,4.000000,4.000000,4.000000,4.000000,4.000000,4.000000,4.000000,4.000000,4.000000,4.000000,4.000000,4.000000,4.000000,100.000000,,,,,,,,,,,,,,,,,,,,,,,,,,,,
1649282180.162011,70.000000,0.000000,4243.589844,4210.769043,4254.743652,4207.179688,4233.974121,4270.512695,4265.000000,4262.692383,4267.051270,4291.794922,4282.692383,4256.922852,4339.102539,4268.846191,3631.000000,1.000000,15.000000,,,,0.000000,4.000000,4.000000,4.000000,4.000000,4.000000,4.000000,4.000000,4.000000,4.000000,4.000000,4.000000,4.000000,4.000000,4.000000,100.000000,,,,,,,,,,,,,,,,,,,,,,,,,,,,
1649282180.169837,71.000000,0.000000,4234.230957,4205.384766,4245.641113,4213.205078,4221.410156,4272.820313,4261.410156,4264.358887,4261.666504,4270.769043,4271.922852,4247.307617,4338.589844,4260.641113,3557.000000,1.000000,15.000000,,,,0.000000,4.000000,4.000000,4.000000,4.000000,4.000000,4.000000,4.000000,4.000000,4.000000,4.000000,4.000000,4.000000,4.000000,4.000000,100.000000,1.000000,58.333332,4.000000,3.000000,3.000000,4.000000,1.000000,4.000000,4.000000,4.000000,3.000000,3.000000,4.000000,4.000000,4.000000,4.000000,,,,,,,,,,,,
1649282180.177562,72.000000,0.000000,4229.743652,4226.025879,4238.333496,4223.589844,4227.820313,4266.025879,4258.846191,4266.538574,4247.820313,4268.333496,4280.897461,4246.538574,4339.487305,4265.769043,3518.000000,1.000000,15.000000,,,,0.000000,4.000000,4.000000,4.000000,4.000000,4.000000,4.000000,4.000000,4.000000,4.000000,4.000000,4.000000,4.000000,4.000000,4.000000,100.000000,,,,,,,,,,,,,,,,,18.000000,0.000000,0.462651,0.513428,-0.464417,0.553772,1.011734,-0.029297,0.040528,-27.664606,-94.807358,1.644923
1649282180.185488,73.000000,0.000000,4230.512695,4215.512695,4234.230957,4211.794922,4222.436035,4267.820313,4254.230957,4263.461426,4243.974121,4279.743652,4281.794922,4248.717773,4342.179688,4267.307617,3629.000000,1.000000,15.000000,,,,0.000000,4.000000,4.000000,4.000000,4.000000,4.000000,4.000000,4.000000,4.000000,4.000000,4.000000,4.000000,4.000000,4.000000,4.000000,100.000000,,,,,,,,,,,,,,,,,,,,,,,,,,,,
1649282180.193313,74.000000,0.000000,4230.769043,4198.717773,4234.615234,4203.589844,4236.538574,4276.666504,4249.615234,4256.922852,4272.948730,4290.512695,4265.897461,4246.153809,4350.897461,4258.974121,3619.000000,1.000000,15.000000,,,,0.000000,4.000000,4.000000,4.000000,4.000000,4.000000,4.000000,4.000000,4.000000,4.000000,4.000000,4.000000,4.000000,4.000000,4.000000,100.000000,,,,,,,,,,,,,,,,,,,,,,,,,,,,
1649282180.201139,75.000000,0.000000,4223.717773,4210.769043,4233.205078,4208.461426,4265.512695,4272.820313,4252.436035,4254.102539,4286.794922,4278.974121,4259.487305,4237.948730,4345.384766,4251.153809,3281.000000,1.000000,15.000000,,,,0.000000,4.000000,4.000000,4.000000,4.000000,4.000000,4.000000,4.000000,4.000000,4.000000,4.000000,4.000000,4.000000,4.000000,4.000000,100.000000,,,,,,,,,,,,,,,,,,,,,,,,,,,,
1649282180.208865,76.000000,0.000000,4213.974121,4208.461426,4225.000000,4199.871582,4268.461426,4268.205078,4256.794922,4257.051270,4275.384766,4264.871582,4265.384766,4228.846191,4334.102539,4243.589844,3541.000000,1.000000,15.000000,,,,0.000000,4.000000,4.000000,4.000000,4.000000,4.000000,4.000000,4.000000,4.000000,4.000000,4.000000,4.000000,4.000000,4.000000,4.000000,100.000000,,,,,,,,,,,,,,,,,19.000000,0.000000,0.463323,0.513611,-0.464417,0.553040,1.017105,-0.041505,0.041016,-27.814146,-94.657814,-0.299077
1649282180.216790,77.000000,0.000000,4217.436035,4194.230957,4227.563965,4190.512695,4243.974121,4276.666504,4260.384766,4257.948730,4270.384766,4259.615234,4274.871582,4231.025879,4330.897461,4246.025879,3509.000000,1.000000,15.000000,,,,0.000000,4.000000,4.000000,4.000000,4.000000,4.000000,4.000000,4.000000,4.000000,4.000000,4.000000,4.000000,4.000000,4.000000,4.000000,100.000000,,,,,,,,,,,,,,,,,,,,,,,,,,,,
1649282180.224616,78.000000,0.000000,4229.743652,4206.794922,4237.307617,4207.948730,4212.820313,4278.717773,4266.025879,4251.794922,4262.948730,4247.948730,4277.563965,4237.179688,4323.461426,4254.487305,3619.000000,1.000000,15.000000,,,,0.000000,4.000000,4.000000,4.000000,4.000000,4.000000,4.000000,4.000000,4.000000,4.000000,4.000000,4.000000,4.000000,4.000000,4.000000,100.000000,,,,,,,,,,,,,,,,,,,,,,,,,,,,
1649282180.232441,79.000000,0.000000,4222.436035,4222.692383,4231.282227,4223.205078,4212.820313,4267.692383,4266.538574,4249.230957,4245.256348,4257.436035,4260.256348,4230.128418,4320.641113,4245.384766,3281.000000,1.000000,15.000000,,,,0.000000,4.000000,4.000000,4.000000,4.000000,4.000000,4.000000,4.000000,4.000000,4.000000,4.000000,4.000000,4.000000,4.000000,4.000000,100.000000,,,,,,,,,,,,,,,,,,,,,,,,,,,,
1649282180.240167,80.000000,0.000000,4214.487305,4209.871582,4225.769043,4205.128418,4232.692383,4262.948730,4257.436035,4249.358887,4244.358887,4284.102539,4244.230957,4225.256348,4328.333496,4237.179688,3541.000000,1.000000,15.000000,,,,0.000000,4.000000,4.000000,4.000000,4.000000,4.000000,4.000000,4.000000,4.000000,4.000000,4.000000,4.000000,4.000000,4.000000,4.000000,100.000000,,,,,,,,,,,,,,,,,20.000000,0.000000,0.463773,0.514038,-0.464294,0.552368,1.013687,-0.032715,0.039551,-28.711376,-94.209198,0.897231
1649282180.248093,81.000000,0.000000,4226.666504,4195.769043,4235.000000,4192.563965,4241.794922,4271.538574,4253.333496,4249.102539,4258.461426,4278.717773,4254.230957,4237.436035,4329.615234,4254.487305,3509.000000,1.000000,15.000000,,,,0.000000,4.000000,4.000000,4.000000,4.000000,4.000000,4.000000,4.000000,4.000000,4.000000,4.000000,4.000000,4.000000,4.000000,4.000000,100.000000,,,,,,,,,,,,,,,,,,,,,,,,,,,,
1649282180.255918,82.000000,0.000000,4235.769043,4203.461426,4244.615234,4208.077148,4243.205078,4279.230957,4260.128418,4256.922852,4271.794922,4260.641113,4270.256348,4249.102539,4323.846191,4266.794922,3619.000000,1.000000,15.000000,,,,0.000000,4.000000,4.000000,4.000000,4.000000,4.000000,4.000000,4.000000,4.000000,4.000000,4.000000,4.000000,4.000000,4.000000,4.000000,100.000000,,,,,,,,,,,,,,,,,,,,,,,,,,,,
1649282180.263744,83.000000,0.000000,4236.153809,4217.436035,4248.974121,4218.461426,4237.692383,4279.230957,4261.666504,4264.102539,4276.025879,4262.179688,4266.538574,4245.384766,4326.794922,4252.820313,3281.000000,1.000000,15.000000,,,,0.000000,4.000000,4.000000,4.000000,4.000000,4.000000,4.000000,4.000000,4.000000,4.000000,4.000000,4.000000,4.000000,4.000000,4.000000,100.000000,,,,,,,,,,,,,,,,,,,,,,,,,,,,
1649282180.271570,84.000000,0.000000,4233.461426,4225.897461,4246.153809,4219.743652,4230.256348,4275.641113,4250.512695,4255.769043,4259.487305,4263.717773,4256.282227,4231.538574,4329.743652,4236.794922,3541.000000,1.000000,15.000000,,,,0.000000,4.000000,4.000000,4.000000,4.000000,4.000000,4.000000,4.000000,4.000000,4.000000,4.000000,4.000000,4.000000,4.000000,4.000000,100.000000,,,,,,,,,,,,,,,,,21.000000,0.000000,0.464177,0.514648,-0.463867,0.551819,1.005875,-0.020508,0.039063,-26.767376,-94.807358,-1.644923
1649282180.279395,85.000000,0.000000,4224.487305,4224.102539,4231.922852,4215.384766,4224.743652,4270.000000,4241.922852,4238.461426,4234.743652,4253.205078,4244.102539,4218.717773,4315.512695,4231.666504,3509.000000,1.000000,15.000000,,,,0.000000,4.000000,4.000000,4.000000,4.000000,4.000000,4.000000,4.000000,4.000000,4.000000,4.000000,4.000000,4.000000,4.000000,4.000000,100.000000,,,,,,,,,,,,,,,,,,,,,,,,,,,,
1649282180.287221,86.000000,0.000000,4218.333496,4210.769043,4224.487305,4203.589844,4230.000000,4261.794922,4243.333496,4228.846191,4224.487305,4241.282227,4234.102539,4215.769043,4300.256348,4232.307617,3619.000000,1.000000,15.000000,,,,0.000000,4.000000,4.000000,4.000000,4.000000,4.000000,4.000000,4.000000,4.000000,4.000000,4.000000,4.000000,4.000000,4.000000,4.000000,100.000000,,,,,,,,,,,,,,,,,,,,,,,,,,,,
1649282180.295146,87.000000,0.000000,4234.743652,4203.333496,4240.256348,4205.512695,4243.717773,4264.743652,4249.615234,4237.948730,4237.051270,4240.769043,4249.358887,4231.282227,4297.051270,4250.000000,3281.000000,1.000000,15.000000,,,,0.000000,4.000000,4.000000,4.000000,4.000000,4.000000,4.000000,4.000000,4.000000,4.000000,4.000000,4.000000,4.000000,4.000000,4.000000,100.000000,,,,,,,,,,,,,,,,,,,,,,,,,,,,
1649282180.303072,88.000000,0.000000,4247.307617,4208.333496,4253.846191,4216.282227,4234.615234,4277.692383,4253.205078,4257.179688,4245.512695,4248.846191,4262.692383,4242.948730,4295.256348,4263.589844,3541.000000,1.000000,15.000000,,,,0.000000,4.000000,4.000000,4.000000,4.000000,4.000000,4.000000,4.000000,4.000000,4.000000,4.000000,4.000000,4.000000,4.000000,4.000000,100.000000,,,,,,,,,,,,,,,,,22.000000,0.000000,0.464280,0.515442,-0.463318,0.551453,1.005386,-0.025879,0.044434,-27.963684,-94.209198,0.897231
1649282180.310897,89.000000,0.000000,4234.743652,4220.769043,4242.692383,4214.102539,4225.769043,4278.077148,4245.897461,4251.666504,4236.538574,4244.102539,4247.692383,4232.307617,4300.256348,4250.256348,3509.000000,1.000000,15.000000,,,,0.000000,4.000000,4.000000,4.000000,4.000000,4.000000,4.000000,4.000000,4.000000,4.000000,4.000000,4.000000,4.000000,4.000000,4.000000,100.000000,,,,,,,,,,,,,,,,,,,,,,,,,,,,
1649282180.318723,90.000000,0.000000,4228.589844,4232.051270,4236.538574,4215.256348,4256.538574,4271.794922,4242.436035,4232.436035,4240.512695,4236.282227,4240.897461,4230.256348,4321.025879,4245.128418,3619.000000,1.000000,15.000000,,,,0.000000,4.000000,4.000000,4.000000,4.000000,4.000000,4.000000,4.000000,4.000000,4.000000,4.000000,4.000000,4.000000,4.000000,4.000000,100.000000,,,,,,,,,,,,,,,,,,,,,,,,,,,,
1649282180.326549,91.000000,0.000000,4244.615234,4227.436035,4253.205078,4221.025879,4251.282227,4273.077148,4250.128418,4240.256348,4250.641113,4245.256348,4260.897461,4248.333496,4331.666504,4264.871582,3281.000000,1.000000,15.000000,,,,0.000000,4.000000,4.000000,4.000000,4.000000,4.000000,4.000000,4.000000,4.000000,4.000000,4.000000,4.000000,4.000000,4.000000,4.000000,100.000000,,,,,,,,,,,,,,,,,,,,,,,,,,,,
1649282180.334274,92.000000,0.000000,4257.307617,4220.897461,4265.256348,4219.487305,4204.102539,4273.589844,4253.461426,4255.256348,4240.128418,4265.256348,4270.769043,4257.051270,4319.358887,4276.666504,3541.000000,1.000000,15.000000,,,,0.000000,4.000000,4.000000,4.000000,4.000000,4.000000,4.000000,4.000000,4.000000,4.000000,4.000000,4.000000,4.000000,4.000000,4.000000,100.000000,,,,,,,,,,,,,,,,,23.000000,0.000000,0.464372,0.516113,-0.462769,0.551208,1.009781,-0.012207,0.034180,-26.468300,-94.209198,-0.448615
1649282180.342000,93.000000,0.000000,4246.282227,4221.922852,4250.256348,4219.487305,4218.974121,4266.282227,4251.794922,4247.563965,4231.410156,4270.512695,4251.794922,4244.615234,4299.487305,4260.384766,3509.000000,1.000000,15.000000,,,,0.000000,4.000000,4.000000,4.000000,4.000000,4.000000,4.000000,4.000000,4.000000,4.000000,4.000000,4.000000,4.000000,4.000000,4.000000,100.000000,,,,,,,,,,,,,,,,,,,,,,,,,,,,
1649282180.349825,94.000000,0.000000,4228.589844,4221.538574,4232.179688,4216.153809,4267.563965,4264.230957,4248.205078,4239.743652,4228.974121,4255.512695,4241.025879,4231.794922,4290.897461,4245.512695,3619.000000,1.000000,15.000000,,,,0.000000,4.000000,4.000000,4.000000,4.000000,4.000000,4.000000,4.000000,4.000000,4.000000,4.000000,4.000000,4.000000,4.000000,4.000000,100.000000,,,,,,,,,,,,,,,,,,,,,,,,,,,,
1649282180.357651,95.000000,0.000000,4228.846191,4218.461426,4236.538574,4210.384766,4243.589844,4270.641113,4243.589844,4246.410156,4222.179688,4249.615234,4256.538574,4232.948730,4311.922852,4253.589844,3281.000000,1.000000,15.000000,,,,0.000000,4.000000,4.000000,4.000000,4.000000,4.000000,4.000000,4.000000,4.000000,4.000000,4.000000,4.000000,4.000000,4.000000,4.000000,100.000000,,,,,,,,,,,,,,,,,,,,,,,,,,,,
1649282180.365477,96.000000,0.000000,4241.794922,4210.384766,4247.820313,4206.666504,4198.589844,4274.102539,4246.538574,4246.410156,4225.000000,4250.897461,4268.717773,4240.641113,4333.974121,4265.641113,3541.000000,1.000000,15.000000,,,,0.000000,4.000000,4.000000,4.000000,4.000000,4.000000,4.000000,4.000000,4.000000,4.000000,4.000000,4.000000,4.000000,4.000000,4.000000,100.000000,,,,,,,,,,,,,,,,,24.000000,0.000000,0.464479,0.516541,-0.462402,0.551025,1.007828,-0.019043,0.027832,-25.870146,-92.863358,1.046769
1649282180.373302,97.000000,0.000000,4245.512695,4207.563965,4249.615234,4204.615234,4219.871582,4274.358887,4252.563965,4248.461426,4246.538574,4249.615234,4262.692383,4246.922852,4329.358887,4270.384766,3509.000000,1.000000,15.000000,,,,0.000000,4.000000,4.000000,4.000000,4.000000,4.000000,4.000000,4.000000,4.000000,4.000000,4.000000,4.000000,4.000000,4.000000,4.000000,100.000000,,,,,,,,,,,,,,,,,,,,,,,,,,,,
1649282180.381128,98.000000,0.000000,4237.820313,4219.871582,4245.256348,4210.769043,4251.922852,4270.769043,4253.077148,4255.769043,4255.384766,4260.128418,4260.512695,4246.922852,4324.615234,4269.615234,3619.000000,1.000000,15.000000,,,,0.000000,4.000000,4.000000,4.000000,4.000000,4.000000,4.000000,4.000000,4.000000,4.000000,4.000000,4.000000,4.000000,4.000000,4.000000,100.000000,,,,,,,,,,,,,,,,,,,,,,,,,,,,
1649282180.388854,99.000000,0.000000,4235.000000,4228.974121,4243.205078,4215.128418,4242.436035,4267.820313,4250.384766,4253.974121,4231.153809,4271.666504,4267.051270,4239.871582,4334.487305,4264.615234,3281.000000,1.000000,15.000000,,,,0.000000,4.000000,4.000000,4.000000,4.000000,4.000000,4.000000,4.000000,4.000000,4.000000,4.000000,4.000000,4.000000,4.000000,4.000000,100.000000,,,,,,,,,,,,,,,,,,,,,,,,,,,,
1649282180.396779,100.000000,0.000000,4233.333496,4215.897461,4243.589844,4210.512695,4219.871582,4266.794922,4237.948730,4243.974121,4213.461426,4251.794922,4260.897461,4229.615234,4330.000000,4256.922852,3541.000000,1.000000,15.000000,,,,0.000000,4.000000,4.000000,4.000000,4.000000,4.000000,4.000000,4.000000,4.000000,4.000000,4.000000,4.000000,4.000000,4.000000,4.000000,100.000000,,,,,,,,,,,,,,,,,25.000000,0.000000,0.464385,0.516724,-0.462219,0.551086,1.011246,-0.028321,0.034180,-27.814146,-93.910126,0.598154
1649282180.404705,101.000000,0.000000,4234.743652,4215.384766,4245.256348,4215.897461,4223.846191,4262.820313,4227.948730,4237.820313,4233.846191,4237.820313,4254.871582,4233.077148,4311.410156,4261.666504,3509.000000,1.000000,15.000000,,,,0.000000,4.000000,4.000000,4.000000,4.000000,4.000000,4.000000,4.000000,4.000000,4.000000,4.000000,4.000000,4.000000,4.000000,4.000000,100.000000,,,,,,,,,,,,,,,,,,,,,,,,,,,,
1649282180.412530,102.000000,0.000000,4249.102539,4233.333496,4252.307617,4230.512695,4233.846191,4268.846191,4240.128418,4246.666504,4262.692383,4268.205078,4264.871582,4248.717773,4315.000000,4273.589844,3619.000000,1.000000,15.000000,,,,0.000000,4.000000,4.000000,4.000000,4.000000,4.000000,4.000000,4.000000,4.000000,4.000000,4.000000,4.000000,4.000000,4.000000,4.000000,100.000000,,,,,,,,,,,,,,,,,,,,,,,,,,,,
1649282180.420356,103.000000,0.000000,4252.179688,4233.846191,4251.922852,4225.641113,4227.307617,4278.461426,4255.128418,4264.615234,4262.948730,4281.922852,4270.512695,4251.922852,4330.512695,4272.820313,3281.000000,1.000000,15.000000,,,,0.000000,4.000000,4.000000,4.000000,4.000000,4.000000,4.000000,4.000000,4.000000,4.000000,4.000000,4.000000,4.000000,4.000000,4.000000,100.000000,,,,,,,,,,,,,,,,,,,,,,,,,,,,
1649282180.428281,104.000000,0.000000,4229.743652,4213.077148,4235.128418,4205.641113,4227.563965,4272.820313,4249.230957,4260.000000,4235.512695,4252.948730,4254.102539,4235.384766,4322.563965,4259.102539,3541.000000,1.000000,15.000000,,,,0.000000,4.000000,4.000000,4.000000,4.000000,4.000000,4.000000,4.000000,4.000000,4.000000,4.000000,4.000000,4.000000,4.000000,4.000000,100.000000,,,,,,,,,,,,,,,,,26.000000,0.000000,0.464243,0.516602,-0.462280,0.551270,0.996597,-0.032715,0.038087,-28.412298,-94.807358,-0.448615
1649282180.436207,105.000000,0.000000,4222.307617,4205.128418,4226.922852,4197.948730,4238.205078,4266.282227,4242.179688,4235.128418,4214.871582,4239.230957,4250.769043,4227.051270,4310.897461,4250.769043,3509.000000,1.000000,15.000000,,,,0.000000,4.000000,4.000000,4.000000,4.000000,4.000000,4.000000,4.000000,4.000000,4.000000,4.000000,4.000000,4.000000,4.000000,4.000000,100.000000,,,,,,,,,,,,,,,,,,,,,,,,,,,,
1649282180.444032,106.000000,0.000000,4238.717773,4222.948730,4241.153809,4208.205078,4246.794922,4276.538574,4254.230957,4235.897461,4225.897461,4258.974121,4276.538574,4241.922852,4326.794922,4261.538574,3619.000000,1.000000,15.000000,,,,0.000000,4.000000,4.000000,4.000000,4.000000,4.000000,4.000000,4.000000,4.000000,4.000000,4.000000,4.000000,4.000000,4.000000,4.000000,100.000000,,,,,,,,,,,,,,,,,,,,,,,,,,,,
1649282180.451858,107.000000,0.000000,4240.897461,4229.871582,4247.179688,4220.641113,4245.128418,4283.974121,4270.769043,4253.589844,4258.846191,4273.077148,4278.461426,4251.282227,4336.794922,4269.743652,3281.000000,1.000000,15.000000,,,,0.000000,4.000000,4.000000,4.000000,4.000000,4.000000,4.000000,4.000000,4.000000,4.000000,4.000000,4.000000,4.000000,4.000000,4.000000,100.000000,,,,,,,,,,,,,,,,,,,,,,,,,,,,
1649282180.459784,108.000000,0.000000,4222.436035,4221.153809,4228.077148,4215.256348,4228.077148,4279.615234,4268.717773,4252.820313,4251.410156,4258.461426,4252.820313,4232.563965,4316.282227,4253.077148,3541.000000,1.000000,15.000000,,,,0.000000,4.000000,4.000000,4.000000,4.000000,4.000000,4.000000,4.000000,4.000000,4.000000,4.000000,4.000000,4.000000,4.000000,4.000000,100.000000,,,,,,,,,,,,,,,,,27.000000,0.000000,0.464314,0.516418,-0.462341,0.551331,1.007828,-0.037598,0.046876,-28.412298,-95.255974,0.448615
1649282180.467709,109.000000,0.000000,4211.538574,4219.358887,4212.563965,4204.487305,4214.743652,4277.307617,4255.128418,4243.846191,4215.641113,4246.794922,4239.358887,4207.692383,4304.487305,4230.512695,3509.000000,1.000000,15.000000,,,,0.000000,4.000000,4.000000,4.000000,4.000000,4.000000,4.000000,4.000000,4.000000,4.000000,4.000000,4.000000,4.000000,4.000000,4.000000,100.000000,,,,,,,,,,,,,,,,,,,,,,,,,,,,
1649282180.475535,110.000000,0.000000,4211.666504,4206.410156,4212.820313,4198.205078,4226.666504,4276.282227,4251.282227,4238.461426,4218.589844,4250.000000,4236.410156,4197.820313,4309.487305,4227.051270,3619.000000,1.000000,15.000000,,,,0.000000,4.000000,4.000000,4.000000,4.000000,4.000000,4.000000,4.000000,4.000000,4.000000,4.000000,4.000000,4.000000,4.000000,4.000000,100.000000,,,,,,,,,,,,,,,,,,,,,,,,,,,,
1649282180.483360,111.000000,0.000000,4214.102539,4194.743652,4216.538574,4197.436035,4231.410156,4275.000000,4250.769043,4238.077148,4240.384766,4245.897461,4243.205078,4204.743652,4310.256348,4235.384766,3281.000000,1.000000,15.000000,,,,0.000000,4.000000,4.000000,4.000000,4.000000,4.000000,4.000000,4.000000,4.000000,4.000000,4.000000,4.000000,4.000000,4.000000,4.000000,100.000000,,,,,,,,,,,,,,,,,,,,,,,,,,,,
1649282180.491086,112.000000,0.000000,4224.358887,4215.897461,4226.666504,4208.717773,4214.871582,4275.256348,4249.102539,4246.794922,4244.615234,4248.846191,4261.153809,4224.487305,4315.641113,4246.794922,3541.000000,1.000000,15.000000,,,,0.000000,4.000000,4.000000,4.000000,4.000000,4.000000,4.000000,4.000000,4.000000,4.000000,4.000000,4.000000,4.000000,4.000000,4.000000,100.000000,,,,,,,,,,,,,,,,,28.000000,0.000000,0.464545,0.515991,-0.462585,0.551331,1.007340,-0.030274,0.036133,-27.365530,-95.405510,-0.598154
1649282180.499012,113.000000,0.000000,4236.410156,4237.948730,4242.051270,4220.000000,4227.179688,4274.102539,4246.794922,4252.563965,4242.307617,4267.307617,4268.333496,4234.615234,4330.128418,4258.846191,3509.000000,1.000000,15.000000,,,,0.000000,4.000000,4.000000,4.000000,4.000000,4.000000,4.000000,4.000000,4.000000,4.000000,4.000000,4.000000,4.000000,4.000000,4.000000,100.000000,,,,,,,,,,,,,,,,,,,,,,,,,,,,
1649282180.506837,114.000000,0.000000,4241.410156,4235.384766,4248.846191,4223.846191,4263.846191,4274.615234,4236.410156,4251.666504,4238.077148,4278.333496,4270.897461,4232.436035,4345.769043,4264.102539,3619.000000,1.000000,15.000000,,,,0.000000,4.000000,4.000000,4.000000,4.000000,4.000000,4.000000,4.000000,4.000000,4.000000,4.000000,4.000000,4.000000,4.000000,4.000000,100.000000,,,,,,,,,,,,,,,,,,,,,,,,,,,,
1649282180.514663,115.000000,0.000000,4243.974121,4233.333496,4247.307617,4228.461426,4260.897461,4278.077148,4233.077148,4247.692383,4232.179688,4279.615234,4283.846191,4241.410156,4341.282227,4263.974121,3281.000000,1.000000,15.000000,,,,0.000000,4.000000,4.000000,4.000000,4.000000,4.000000,4.000000,4.000000,4.000000,4.000000,4.000000,4.000000,4.000000,4.000000,4.000000,100.000000,,,,,,,,,,,,,,,,,,,,,,,,,,,,
1649282180.522389,116.000000,0.000000,4248.717773,4234.871582,4248.333496,4231.922852,4233.333496,4280.512695,4243.077148,4237.051270,4237.692383,4282.948730,4280.128418,4247.820313,4322.436035,4264.743652,3541.000000,1.000000,15.000000,,,,0.000000,4.000000,4.000000,4.000000,4.000000,4.000000,4.000000,4.000000,4.000000,4.000000,4.000000,4.000000,4.000000,4.000000,4.000000,100.000000,,,,,,,,,,,,,,,,,29.000000,0.000000,0.464727,0.515564,-0.462952,0.551270,1.018082,-0.018555,0.029786,-26.468300,-94.807358,0.448615
1649282180.530314,117.000000,0.000000,4250.769043,4240.256348,4253.205078,4231.282227,4229.230957,4280.256348,4247.563965,4235.769043,4253.077148,4283.846191,4267.563965,4241.153809,4330.897461,4267.179688,3509.000000,1.000000,15.000000,,,,0.000000,4.000000,4.000000,4.000000,4.000000,4.000000,4.000000,4.000000,4.000000,4.000000,4.000000,4.000000,4.000000,4.000000,4.000000,100.000000,,,,,,,,,,,,,,,,,,,,,,,,,,,,
1649282180.538140,118.000000,0.000000,4244.230957,4249.230957,4249.871582,4235.256348,4226.538574,4279.871582,4243.846191,4241.794922,4246.794922,4269.230957,4266.666504,4233.974121,4352.051270,4262.179688,3619.000000,1.000000,15.000000,,,,0.000000,4.000000,4.000000,4.000000,4.000000,4.000000,4.000000,4.000000,4.000000,4.000000,4.000000,4.000000,4.000000,4.000000,4.000000,100.000000,,,,,,,,,,,,,,,,,,,,,,,,,,,,
1649282180.545965,119.000000,0.000000,4230.384766,4246.410156,4233.205078,4235.897461,4229.871582,4279.102539,4243.974121,4234.102539,4231.410156,4254.615234,4256.794922,4224.102539,4337.820313,4249.615234,3281.000000,1.000000,15.000000,,,,0.000000,4.000000,4.000000,4.000000,4.000000,4.000000,4.000000,4.000000,4.000000,4.000000,4.000000,4.000000,4.000000,4.000000,4.000000,100.000000,,,,,,,,,,,,,,,,,,,,,,,,,,,,
1649282180.553691,120.000000,0.000000,4227.692383,4233.333496,4226.794922,4225.000000,4249.743652,4277.307617,4243.846191,4230.256348,4231.025879,4256.025879,4250.512695,4216.666504,4306.410156,4247.436035,3541.000000,1.000000,15.000000,,,,0.000000,4.000000,4.000000,4.000000,4.000000,4.000000,4.000000,4.000000,4.000000,4.000000,4.000000,4.000000,4.000000,4.000000,4.000000,100.000000,,,,,,,,,,,,,,,,,30.000000,0.000000,0.464909,0.515442,-0.463196,0.551025,1.008316,-0.032715,0.046876,-28.561836,-95.106430,0.000000
1649282180.561616,121.000000,0.000000,4240.256348,4228.846191,4242.820313,4225.128418,4260.128418,4279.615234,4247.820313,4244.230957,4233.333496,4272.436035,4261.025879,4225.641113,4308.589844,4258.077148,3509.000000,1.000000,15.000000,,,,0.000000,4.000000,4.000000,4.000000,4.000000,4.000000,4.000000,4.000000,4.000000,4.000000,4.000000,4.000000,4.000000,4.000000,4.000000,100.000000,,,,,,,,,,,,,,,,,,,,,,,,,,,,
1649282180.569442,122.000000,0.000000,4242.436035,4241.410156,4251.282227,4235.897461,4255.641113,4283.974121,4260.641113,4252.179688,4233.205078,4282.948730,4266.282227,4234.743652,4328.461426,4265.000000,3619.000000,1.000000,15.000000,,,,0.000000,4.000000,4.000000,4.000000,4.000000,4.000000,4.000000,4.000000,4.000000,4.000000,4.000000,4.000000,4.000000,4.000000,4.000000,100.000000,,,,,,,,,,,,,,,,,,,,,,,,,,,,
1649282180.577268,123.000000,0.000000,4230.512695,4247.692383,4239.487305,4236.025879,4233.717773,4282.563965,4266.410156,4243.717773,4231.153809,4262.307617,4261.282227,4229.230957,4328.461426,4260.000000,3281.000000,1.000000,15.000000,,,,0.000000,4.000000,4.000000,4.000000,4.000000,4.000000,4.000000,4.000000,4.000000,4.000000,4.000000,4.000000,4.000000,4.000000,4.000000,100.000000,,,,,,,,,,,,,,,,,,,,,,,,,,,,
1649282180.584993,124.000000,0.000000,4233.461426,4237.307617,4236.922852,4232.692383,4212.820313,4278.077148,4259.743652,4244.102539,4232.692383,4252.051270,4261.922852,4228.077148,4322.692383,4257.436035,3541.000000,1.000000,15.000000,,,,0.000000,4.000000,4.000000,4.000000,4.000000,4.000000,4.000000,4.000000,4.000000,4.000000,4.000000,4.000000,4.000000,4.000000,4.000000,100.000000,,,,,,,,,,,,,,,,,31.000000,0.000000,0.465410,0.515076,-0.463318,0.550842,1.014176,-0.026368,0.039063,-29.159990,-93.760590,-0.149538
1649282180.592919,125.000000,0.000000,4245.512695,4229.230957,4244.871582,4227.820313,4230.641113,4278.589844,4253.205078,4246.025879,4243.205078,4263.589844,4262.948730,4233.205078,4325.384766,4263.333496,3509.000000,1.000000,15.000000,,,,0.000000,4.000000,4.000000,4.000000,4.000000,4.000000,4.000000,4.000000,4.000000,4.000000,4.000000,4.000000,4.000000,4.000000,4.000000,100.000000,,,,,,,,,,,,,,,,,,,,,,,,,,,,
1649282180.600745,126.000000,0.000000,4240.000000,4227.948730,4242.179688,4216.282227,4260.128418,4279.358887,4246.153809,4238.333496,4252.692383,4257.563965,4257.051270,4229.358887,4324.743652,4261.025879,3619.000000,1.000000,15.000000,,,,0.000000,4.000000,4.000000,4.000000,4.000000,4.000000,4.000000,4.000000,4.000000,4.000000,4.000000,4.000000,4.000000,4.000000,4.000000,100.000000,,,,,,,,,,,,,,,,,,,,,,,,,,,,
1649282180.608570,127.000000,0.000000,4241.025879,4235.384766,4244.743652,4225.512695,4251.794922,4277.436035,4238.846191,4238.717773,4250.128418,4256.538574,4261.794922,4231.666504,4321.538574,4256.922852,52.000000,1.000000,15.000000,,,,0.000000,4.000000,4.000000,4.000000,4.000000,4.000000,4.000000,4.000000,4.000000,4.000000,4.000000,4.000000,4.000000,4.000000,4.000000,100.000000,,,,,,,,,,,,,,,,,,,,,,,,,,,,
1649282180.616296,0.000000,0.000000,4257.179688,4244.743652,4259.487305,4242.307617,4238.974121,4277.179688,4232.948730,4245.769043,4240.512695,4277.179688,4270.769043,4246.794922,4323.077148,4267.948730,3583.000000,1.000000,15.000000,,,,0.000000,4.000000,4.000000,4.000000,4.000000,4.000000,4.000000,4.000000,4.000000,4.000000,4.000000,4.000000,4.000000,4.000000,4.000000,100.000000,,,,,,,,,,,,,,,,,0.000000,0.000000,0.465633,0.514709,-0.463501,0.550842,0.990250,-0.036622,0.046387,-26.169222,-95.405510,0.299077
1649282180.624221,1.000000,0.000000,4264.358887,4249.358887,4265.128418,4237.563965,4247.436035,4279.615234,4236.538574,4253.974121,4250.256348,4279.230957,4275.769043,4255.769043,4327.692383,4281.666504,3564.000000,1.000000,15.000000,,,,0.000000,4.000000,4.000000,4.000000,4.000000,4.000000,4.000000,4.000000,4.000000,4.000000,4.000000,4.000000,4.000000,4.000000,4.000000,100.000000,,,,,,,,,,,,,,,,,,,,,,,,,,,,
1649282180.632047,2.000000,0.000000,4262.692383,4246.153809,4263.974121,4234.743652,4236.025879,4280.256348,4245.769043,4265.000000,4267.179688,4264.487305,4277.436035,4252.179688,4331.922852,4277.436035,3579.000000,1.000000,15.000000,,,,0.000000,4.000000,4.000000,4.000000,4.000000,4.000000,4.000000,4.000000,4.000000,4.000000,4.000000,4.000000,4.000000,4.000000,4.000000,100.000000,,,,,,,,,,,,,,,,,,,,,,,,,,,,
1649282180.639873,3.000000,0.000000,4258.974121,4238.461426,4262.051270,4240.384766,4224.871582,4277.820313,4241.666504,4261.410156,4267.563965,4269.871582,4271.410156,4245.256348,4334.102539,4267.948730,3573.000000,1.000000,15.000000,,,,0.000000,4.000000,4.000000,4.000000,4.000000,4.000000,4.000000,4.000000,4.000000,4.000000,4.000000,4.000000,4.000000,4.000000,4.000000,100.000000,,,,,,,,,,,,,,,,,,,,,,,,,,,,
1649282180.647598,4.000000,0.000000,4252.179688,4236.538574,4255.256348,4234.102539,4237.307617,4276.153809,4230.256348,4237.436035,4254.102539,4269.615234,4260.769043,4239.487305,4327.436035,4263.205078,3576.000000,1.000000,15.000000,,,,0.000000,4.000000,4.000000,4.000000,4.000000,4.000000,4.000000,4.000000,4.000000,4.000000,4.000000,4.000000,4.000000,4.000000,4.000000,100.000000,,,,,,,,,,,,,,,,,1.000000,0.000000,0.465812,0.514282,-0.463867,0.550781,1.009293,-0.020996,0.034668,-28.412298,-94.508278,0.897231
1649282180.655524,5.000000,0.000000,4244.487305,4244.102539,4245.769043,4230.769043,4241.025879,4276.538574,4227.563965,4227.179688,4236.538574,4257.563965,4253.974121,4230.512695,4315.769043,4253.846191,1726.000000,1.000000,15.000000,,,,0.000000,4.000000,4.000000,4.000000,4.000000,4.000000,4.000000,4.000000,4.000000,4.000000,4.000000,4.000000,4.000000,4.000000,4.000000,100.000000,,,,,,,,,,,,,,,,,,,,,,,,,,,,
1649282180.663349,6.000000,0.000000,4246.410156,4245.384766,4245.384766,4238.717773,4230.384766,4277.179688,4233.333496,4241.410156,4235.641113,4266.410156,4251.922852,4226.922852,4309.743652,4250.897461,3628.000000,1.000000,15.000000,,,,0.000000,4.000000,4.000000,4.000000,4.000000,4.000000,4.000000,4.000000,4.000000,4.000000,4.000000,4.000000,4.000000,4.000000,4.000000,100.000000,,,,,,,,,,,,,,,,,,,,,,,,,,,,
1649282180.671175,7.000000,0.000000,4257.820313,4229.230957,4257.948730,4235.000000,4232.436035,4277.820313,4240.256348,4248.846191,4250.641113,4259.230957,4255.769043,4239.102539,4311.153809,4261.666504,3570.000000,1.000000,15.000000,,,,0.000000,4.000000,4.000000,4.000000,4.000000,4.000000,4.000000,4.000000,4.000000,4.000000,4.000000,4.000000,4.000000,4.000000,4.000000,100.000000,1.000000,58.333332,4.000000,4.000000,4.000000,4.000000,1.000000,4.000000,4.000000,4.000000,3.000000,3.000000,4.000000,4.000000,4.000000,4.000000,,,,,,,,,,,,
1649282180.678901,8.000000,0.000000,4268.077148,4226.666504,4268.333496,4228.846191,4246.282227,4280.512695,4248.589844,4248.077148,4261.025879,4240.256348,4270.000000,4253.974121,4311.666504,4272.179688,3544.000000,1.000000,15.000000,,,,0.000000,4.000000,4.000000,4.000000,4.000000,4.000000,4.000000,4.000000,4.000000,4.000000,4.000000,4.000000,4.000000,4.000000,4.000000,100.000000,,,,,,,,,,,,,,,,,2.000000,0.000000,0.465924,0.513916,-0.464233,0.550720,1.014176,-0.027344,0.040040,-28.412298,-96.003662,-0.897231
