title:Eleccion1, start timestamp:1649274815.850330, stop timestamp:1649274828.654936, headset type:EPOCPLUS, headset serial:4A2C0467, headset firmware:633, channels:67, sampling rate:eeg_128;mot_32, samples:1642      , version:2.1, 
Timestamp,OriginalTimestamp,EEG.Counter,EEG.Interpolated,EEG.AF3,EEG.F7,EEG.F3,EEG.FC5,EEG.T7,EEG.P7,EEG.O1,EEG.O2,EEG.P8,EEG.T8,EEG.FC6,EEG.F4,EEG.F8,EEG.AF4,EEG.RawCq,EEG.Battery,EEG.BatteryPercent,MarkerIndex,MarkerType,MarkerValueInt,EEG.MarkerHardware,CQ.AF3,CQ.F7,CQ.F3,CQ.FC5,CQ.T7,CQ.P7,CQ.O1,CQ.O2,CQ.P8,CQ.T8,CQ.FC6,CQ.F4,CQ.F8,CQ.AF4,CQ.Overall,EQ.SampleRateQuality,EQ.OVERALL,EQ.AF3,EQ.F7,EQ.F3,EQ.FC5,EQ.T7,EQ.P7,EQ.O1,EQ.O2,EQ.P8,EQ.T8,EQ.FC6,EQ.F4,EQ.F8,EQ.AF4,MOT.CounterMems,MOT.InterpolatedMems,MOT.Q0,MOT.Q1,MOT.Q2,MOT.Q3,MOT.AccX,MOT.AccY,MOT.AccZ,MOT.MagX,MOT.MagY,MOT.MagZ
1649274815.850330,1649274815.847328,81.000000,0.000000,4230.641113,4291.153809,4248.333496,4266.538574,4271.666504,4236.538574,4233.717773,4241.666504,4256.538574,4232.179688,4240.897461,4249.230957,4245.641113,4241.794922,3492.000000,1.000000,15.000000,,,,0.000000,4.000000,4.000000,4.000000,4.000000,4.000000,4.000000,4.000000,4.000000,4.000000,4.000000,4.000000,4.000000,4.000000,4.000000,100.000000,,,,,,,,,,,,,,,,,,,,,,,,,,,,
1649274815.858132,1649274815.855230,82.000000,0.000000,4231.410156,4293.077148,4250.256348,4274.358887,4258.077148,4231.153809,4228.077148,4239.615234,4255.769043,4234.358887,4242.307617,4248.717773,4239.871582,4246.922852,3618.000000,1.000000,15.000000,,,,0.000000,4.000000,4.000000,4.000000,4.000000,4.000000,4.000000,4.000000,4.000000,4.000000,4.000000,4.000000,4.000000,4.000000,4.000000,100.000000,,,,,,,,,,,,,,,,,,,,,,,,,,,,
1649274815.865935,1649274815.863033,83.000000,0.000000,4232.051270,4294.230957,4247.563965,4262.948730,4272.948730,4220.384766,4215.256348,4231.666504,4246.794922,4237.692383,4248.333496,4248.205078,4242.948730,4249.358887,3608.000000,1.000000,15.000000,,,,0.000000,4.000000,4.000000,4.000000,4.000000,4.000000,4.000000,4.000000,4.000000,4.000000,4.000000,4.000000,4.000000,4.000000,4.000000,100.000000,,,,,,,,,,,,,,,,,,,,,,,,,,,,
1649274815.873738,1649274815.870936,84.000000,0.000000,4229.230957,4291.025879,4242.692383,4245.769043,4286.666504,4212.436035,4214.358887,4232.179688,4248.846191,4231.025879,4246.282227,4243.589844,4244.102539,4243.333496,3594.000000,1.000000,15.000000,,,,0.000000,4.000000,4.000000,4.000000,4.000000,4.000000,4.000000,4.000000,4.000000,4.000000,4.000000,4.000000,4.000000,4.000000,4.000000,100.000000,,,,,,,,,,,,,,,,,21.000000,0.000000,0.189284,0.610657,-0.375610,0.670959,0.976577,-0.283696,-0.030762,-32.898453,-104.527351,-0.598154
1649274815.881541,1649274815.878739,85.000000,0.000000,4231.153809,4282.179688,4249.743652,4251.025879,4263.846191,4219.615234,4225.897461,4234.102539,4248.974121,4233.077148,4242.948730,4244.230957,4246.794922,4243.077148,3492.000000,1.000000,15.000000,,,,0.000000,4.000000,4.000000,4.000000,4.000000,4.000000,4.000000,4.000000,4.000000,4.000000,4.000000,4.000000,4.000000,4.000000,4.000000,100.000000,,,,,,,,,,,,,,,,,,,,,,,,,,,,
1649274815.889344,1649274815.886442,86.000000,0.000000,4242.307617,4288.974121,4263.461426,4265.641113,4261.025879,4230.897461,4226.922852,4236.666504,4250.512695,4255.769043,4258.589844,4257.820313,4267.051270,4254.230957,3618.000000,1.000000,15.000000,,,,0.000000,4.000000,4.000000,4.000000,4.000000,4.000000,4.000000,4.000000,4.000000,4.000000,4.000000,4.000000,4.000000,4.000000,4.000000,100.000000,,,,,,,,,,,,,,,,,,,,,,,,,,,,
1649274815.897147,1649274815.894245,87.000000,0.000000,4246.410156,4307.179688,4265.641113,4266.410156,4288.717773,4235.000000,4224.102539,4248.717773,4272.051270,4268.333496,4272.563965,4265.384766,4282.051270,4261.666504,3608.000000,1.000000,15.000000,,,,0.000000,4.000000,4.000000,4.000000,4.000000,4.000000,4.000000,4.000000,4.000000,4.000000,4.000000,4.000000,4.000000,4.000000,4.000000,100.000000,,,,,,,,,,,,,,,,,,,,,,,,,,,,
1649274815.904950,1649274815.901948,88.000000,0.000000,4235.769043,4306.794922,4249.358887,4263.974121,4280.769043,4235.256348,4231.538574,4253.846191,4282.051270,4253.974121,4256.025879,4249.230957,4264.615234,4250.384766,3594.000000,1.000000,15.000000,,,,0.000000,4.000000,4.000000,4.000000,4.000000,4.000000,4.000000,4.000000,4.000000,4.000000,4.000000,4.000000,4.000000,4.000000,4.000000,100.000000,,,,,,,,,,,,,,,,,22.000000,0.000000,0.189254,0.610779,-0.375427,0.670959,0.961440,-0.286625,-0.025879,-33.646145,-104.975967,-0.299077
1649274815.912753,1649274815.909751,89.000000,0.000000,4226.410156,4292.692383,4232.948730,4266.538574,4254.230957,4231.794922,4232.692383,4249.743652,4268.077148,4234.871582,4235.769043,4229.487305,4234.358887,4231.282227,3492.000000,1.000000,15.000000,,,,0.000000,4.000000,4.000000,4.000000,4.000000,4.000000,4.000000,4.000000,4.000000,4.000000,4.000000,4.000000,4.000000,4.000000,4.000000,100.000000,,,,,,,,,,,,,,,,,,,,,,,,,,,,
1649274815.920556,1649274815.917454,90.000000,0.000000,4229.615234,4287.948730,4230.769043,4260.256348,4265.512695,4229.230957,4224.230957,4244.358887,4256.282227,4227.948730,4231.410156,4227.820313,4223.333496,4231.025879,3618.000000,1.000000,15.000000,,,,0.000000,4.000000,4.000000,4.000000,4.000000,4.000000,4.000000,4.000000,4.000000,4.000000,4.000000,4.000000,4.000000,4.000000,4.000000,100.000000,,,,,,,,,,,,,,,,,,,,,,,,,,,,
1649274815.928359,1649274815.925257,91.000000,0.000000,4231.922852,4289.102539,4236.282227,4248.077148,4284.230957,4230.897461,4225.641113,4233.589844,4246.794922,4231.025879,4232.820313,4233.205078,4223.974121,4238.589844,3608.000000,1.000000,15.000000,,,,0.000000,4.000000,4.000000,4.000000,4.000000,4.000000,4.000000,4.000000,4.000000,4.000000,4.000000,4.000000,4.000000,4.000000,4.000000,100.000000,,,,,,,,,,,,,,,,,,,,,,,,,,,,
1649274815.936162,1649274815.932960,92.000000,0.000000,4221.538574,4289.615234,4233.974121,4247.436035,4281.025879,4234.102539,4232.692383,4229.615234,4242.307617,4234.487305,4227.179688,4229.230957,4221.794922,4227.563965,3594.000000,1.000000,15.000000,,,,0.000000,4.000000,4.000000,4.000000,4.000000,4.000000,4.000000,4.000000,4.000000,4.000000,4.000000,4.000000,4.000000,4.000000,4.000000,100.000000,,,,,,,,,,,,,,,,,23.000000,0.000000,0.188770,0.610840,-0.375244,0.671143,0.976577,-0.282719,-0.018067,-34.094757,-104.975967,0.000000
1649274815.943965,1649274815.940763,93.000000,0.000000,4205.384766,4286.025879,4219.230957,4250.128418,4280.897461,4238.589844,4229.102539,4230.512695,4246.025879,4223.589844,4215.128418,4217.179688,4216.282227,4209.358887,3492.000000,1.000000,15.000000,,,,0.000000,4.000000,4.000000,4.000000,4.000000,4.000000,4.000000,4.000000,4.000000,4.000000,4.000000,4.000000,4.000000,4.000000,4.000000,100.000000,,,,,,,,,,,,,,,,,,,,,,,,,,,,
1649274815.951768,1649274815.948466,94.000000,0.000000,4199.871582,4277.051270,4213.589844,4248.589844,4278.077148,4245.000000,4225.256348,4224.358887,4243.461426,4210.897461,4215.769043,4213.717773,4218.333496,4210.000000,3618.000000,1.000000,15.000000,,,,0.000000,4.000000,4.000000,4.000000,4.000000,4.000000,4.000000,4.000000,4.000000,4.000000,4.000000,4.000000,4.000000,4.000000,4.000000,100.000000,,,,,,,,,,,,,,,,,,,,,,,,,,,,
1649274815.959571,1649274815.956269,95.000000,0.000000,4209.487305,4276.410156,4227.051270,4247.436035,4265.384766,4250.384766,4229.743652,4231.666504,4248.077148,4223.846191,4231.282227,4226.666504,4227.179688,4218.461426,3608.000000,1.000000,15.000000,,,,0.000000,4.000000,4.000000,4.000000,4.000000,4.000000,4.000000,4.000000,4.000000,4.000000,4.000000,4.000000,4.000000,4.000000,4.000000,100.000000,,,,,,,,,,,,,,,,,,,,,,,,,,,,
1649274815.967373,1649274815.963972,96.000000,0.000000,4219.230957,4281.794922,4238.461426,4247.820313,4269.743652,4246.282227,4232.820313,4252.051270,4263.333496,4242.436035,4240.512695,4236.282227,4234.743652,4217.563965,3594.000000,1.000000,15.000000,,,,0.000000,4.000000,4.000000,4.000000,4.000000,4.000000,4.000000,4.000000,4.000000,4.000000,4.000000,4.000000,4.000000,4.000000,4.000000,100.000000,,,,,,,,,,,,,,,,,24.000000,0.000000,0.188815,0.610901,-0.375122,0.671143,0.961929,-0.286137,-0.027344,-33.496605,-105.125504,-1.196307
1649274815.975176,1649274815.971775,97.000000,0.000000,4213.333496,4274.487305,4233.333496,4242.820313,4273.717773,4234.487305,4229.358887,4250.128418,4257.692383,4235.769043,4232.307617,4224.358887,4233.461426,4214.358887,3492.000000,1.000000,15.000000,,,,0.000000,4.000000,4.000000,4.000000,4.000000,4.000000,4.000000,4.000000,4.000000,4.000000,4.000000,4.000000,4.000000,4.000000,4.000000,100.000000,,,,,,,,,,,,,,,,,,,,,,,,,,,,
1649274815.982979,1649274815.979478,98.000000,0.000000,4202.307617,4263.974121,4229.102539,4241.282227,4261.666504,4228.717773,4229.230957,4246.153809,4251.410156,4226.538574,4224.358887,4216.025879,4221.153809,4215.769043,3618.000000,1.000000,15.000000,,,,0.000000,4.000000,4.000000,4.000000,4.000000,4.000000,4.000000,4.000000,4.000000,4.000000,4.000000,4.000000,4.000000,4.000000,4.000000,100.000000,,,,,,,,,,,,,,,,,,,,,,,,,,,,
1649274815.990782,1649274815.987281,99.000000,0.000000,4203.205078,4267.692383,4235.769043,4246.666504,4267.436035,4233.974121,4238.077148,4263.717773,4266.153809,4234.743652,4231.794922,4225.897461,4216.025879,4219.102539,3608.000000,1.000000,15.000000,,,,0.000000,4.000000,4.000000,4.000000,4.000000,4.000000,4.000000,4.000000,4.000000,4.000000,4.000000,4.000000,4.000000,4.000000,4.000000,100.000000,,,,,,,,,,,,,,,,,,,,,,,,,,,,
1649274815.998585,1649274815.994984,100.000000,0.000000,4201.794922,4271.410156,4233.589844,4237.692383,4273.974121,4234.743652,4245.512695,4258.589844,4257.692383,4227.563965,4233.589844,4223.589844,4217.563965,4215.769043,3594.000000,1.000000,15.000000,,,,0.000000,4.000000,4.000000,4.000000,4.000000,4.000000,4.000000,4.000000,4.000000,4.000000,4.000000,4.000000,4.000000,4.000000,4.000000,100.000000,,,,,,,,,,,,,,,,,25.000000,0.000000,0.188465,0.611084,-0.375000,0.671143,0.984878,-0.282719,-0.027832,-33.646145,-104.527351,-1.345846
1649274816.006388,1649274816.002787,101.000000,0.000000,4197.436035,4261.410156,4228.974121,4227.820313,4259.358887,4232.179688,4246.666504,4233.077148,4241.666504,4213.205078,4223.077148,4215.000000,4216.666504,4212.307617,3492.000000,1.000000,15.000000,,,,0.000000,4.000000,4.000000,4.000000,4.000000,4.000000,4.000000,4.000000,4.000000,4.000000,4.000000,4.000000,4.000000,4.000000,4.000000,100.000000,,,,,,,,,,,,,,,,,,,,,,,,,,,,
1649274816.014191,1649274816.010490,102.000000,0.000000,4207.436035,4258.717773,4238.846191,4242.307617,4257.692383,4235.384766,4239.487305,4220.128418,4247.563965,4223.461426,4215.769043,4222.436035,4217.948730,4217.820313,3618.000000,1.000000,15.000000,,,,0.000000,4.000000,4.000000,4.000000,4.000000,4.000000,4.000000,4.000000,4.000000,4.000000,4.000000,4.000000,4.000000,4.000000,4.000000,100.000000,,,,,,,,,,,,,,,,,,,,,,,,,,,,
1649274816.021994,1649274816.018293,103.000000,0.000000,4218.333496,4268.205078,4246.282227,4256.666504,4267.820313,4229.102539,4225.769043,4206.922852,4235.384766,4228.461426,4215.769043,4223.077148,4212.692383,4215.769043,3608.000000,1.000000,15.000000,,,,0.000000,4.000000,4.000000,4.000000,4.000000,4.000000,4.000000,4.000000,4.000000,4.000000,4.000000,4.000000,4.000000,4.000000,4.000000,100.000000,,,,,,,,,,,,,,,,,,,,,,,,,,,,
1649274816.029797,1649274816.025996,104.000000,0.000000,4216.410156,4267.563965,4243.205078,4244.615234,4260.256348,4223.974121,4224.102539,4201.282227,4218.077148,4210.256348,4214.871582,4214.358887,4202.051270,4208.333496,3594.000000,1.000000,15.000000,,,,0.000000,4.000000,4.000000,4.000000,4.000000,4.000000,4.000000,4.000000,4.000000,4.000000,4.000000,4.000000,4.000000,4.000000,4.000000,100.000000,,,,,,,,,,,,,,,,,26.000000,0.000000,0.188593,0.611328,-0.374756,0.671021,0.965347,-0.279301,-0.025391,-33.496605,-102.882431,0.149538
1649274816.037600,1649274816.033899,105.000000,0.000000,4212.563965,4265.000000,4243.717773,4238.333496,4257.307617,4240.512695,4226.282227,4209.487305,4225.897461,4206.025879,4215.769043,4223.077148,4205.256348,4217.436035,3492.000000,1.000000,15.000000,,,,0.000000,4.000000,4.000000,4.000000,4.000000,4.000000,4.000000,4.000000,4.000000,4.000000,4.000000,4.000000,4.000000,4.000000,4.000000,100.000000,,,,,,,,,,,,,,,,,,,,,,,,,,,,
1649274816.045403,1649274816.041702,106.000000,0.000000,4217.051270,4275.384766,4247.692383,4254.871582,4274.230957,4248.974121,4222.051270,4208.205078,4227.820313,4215.769043,4222.563965,4233.333496,4216.025879,4230.897461,3618.000000,1.000000,15.000000,,,,0.000000,4.000000,4.000000,4.000000,4.000000,4.000000,4.000000,4.000000,4.000000,4.000000,4.000000,4.000000,4.000000,4.000000,4.000000,100.000000,,,,,,,,,,,,,,,,,,,,,,,,,,,,
1649274816.053206,1649274816.049605,107.000000,0.000000,4228.205078,4283.077148,4253.077148,4266.666504,4280.512695,4235.897461,4225.000000,4209.487305,4225.256348,4218.974121,4232.051270,4233.205078,4223.205078,4232.307617,3608.000000,1.000000,15.000000,,,,0.000000,4.000000,4.000000,4.000000,4.000000,4.000000,4.000000,4.000000,4.000000,4.000000,4.000000,4.000000,4.000000,4.000000,4.000000,100.000000,,,,,,,,,,,,,,,,,,,,,,,,,,,,
1649274816.061009,1649274816.057508,108.000000,0.000000,4237.307617,4281.794922,4262.307617,4264.358887,4266.794922,4237.692383,4235.256348,4222.563965,4235.897461,4221.025879,4235.897461,4237.051270,4228.974121,4230.384766,3594.000000,1.000000,15.000000,,,,0.000000,4.000000,4.000000,4.000000,4.000000,4.000000,4.000000,4.000000,4.000000,4.000000,4.000000,4.000000,4.000000,4.000000,4.000000,100.000000,1.000000,100.000000,4.000000,4.000000,4.000000,4.000000,4.000000,4.000000,4.000000,4.000000,4.000000,4.000000,4.000000,4.000000,4.000000,4.000000,27.000000,0.000000,0.188683,0.611450,-0.374512,0.671021,0.982925,-0.274907,-0.024903,-33.496605,-103.929199,-0.897231
1649274816.068812,1649274816.065311,109.000000,0.000000,4234.871582,4283.333496,4266.025879,4262.436035,4264.615234,4247.692383,4232.692383,4217.948730,4232.820313,4222.692383,4230.128418,4239.230957,4228.461426,4231.282227,3492.000000,1.000000,15.000000,,,,0.000000,4.000000,4.000000,4.000000,4.000000,4.000000,4.000000,4.000000,4.000000,4.000000,4.000000,4.000000,4.000000,4.000000,4.000000,100.000000,,,,,,,,,,,,,,,,,,,,,,,,,,,,
1649274816.076615,1649274816.073114,110.000000,0.000000,4230.641113,4286.794922,4260.897461,4263.461426,4281.025879,4237.820313,4224.102539,4219.487305,4229.743652,4219.743652,4229.358887,4237.563965,4228.589844,4232.948730,3618.000000,1.000000,15.000000,,,,0.000000,4.000000,4.000000,4.000000,4.000000,4.000000,4.000000,4.000000,4.000000,4.000000,4.000000,4.000000,4.000000,4.000000,4.000000,100.000000,,,,,,,,,,,,,,,,,,,,,,,,,,,,
1649274816.084417,1649274816.080917,111.000000,0.000000,4234.615234,4281.922852,4259.871582,4257.307617,4281.666504,4235.897461,4228.717773,4243.333496,4245.641113,4215.641113,4232.436035,4237.563965,4230.384766,4232.692383,3608.000000,1.000000,15.000000,,,,0.000000,4.000000,4.000000,4.000000,4.000000,4.000000,4.000000,4.000000,4.000000,4.000000,4.000000,4.000000,4.000000,4.000000,4.000000,100.000000,,,,,,,,,,,,,,,,,,,,,,,,,,,,
1649274816.092220,1649274816.088620,112.000000,0.000000,4236.794922,4278.077148,4260.128418,4253.974121,4272.051270,4246.538574,4232.820313,4239.615234,4243.333496,4222.692383,4229.358887,4234.230957,4220.384766,4231.666504,3594.000000,1.000000,15.000000,,,,0.000000,4.000000,4.000000,4.000000,4.000000,4.000000,4.000000,4.000000,4.000000,4.000000,4.000000,4.000000,4.000000,4.000000,4.000000,100.000000,,,,,,,,,,,,,,,,,28.000000,0.000000,0.188623,0.611633,-0.374023,0.671143,0.989273,-0.283207,-0.034668,-33.496605,-105.125504,-0.448615
1649274816.100023,1649274816.096523,113.000000,0.000000,4232.692383,4277.948730,4252.692383,4256.025879,4274.743652,4237.948730,4228.717773,4222.563965,4227.563965,4228.461426,4230.512695,4230.641113,4214.871582,4233.205078,3492.000000,1.000000,15.000000,,,,0.000000,4.000000,4.000000,4.000000,4.000000,4.000000,4.000000,4.000000,4.000000,4.000000,4.000000,4.000000,4.000000,4.000000,4.000000,100.000000,,,,,,,,,,,,,,,,,,,,,,,,,,,,
1649274816.107826,1649274816.104326,114.000000,0.000000,4228.974121,4278.333496,4249.230957,4261.153809,4272.307617,4224.871582,4223.461426,4226.922852,4230.641113,4219.487305,4232.820313,4233.461426,4223.846191,4233.077148,3618.000000,1.000000,15.000000,,,,0.000000,4.000000,4.000000,4.000000,4.000000,4.000000,4.000000,4.000000,4.000000,4.000000,4.000000,4.000000,4.000000,4.000000,4.000000,100.000000,,,,,,,,,,,,,,,,,,,,,,,,,,,,
1649274816.115629,1649274816.112129,115.000000,0.000000,4233.589844,4288.205078,4256.922852,4272.692383,4264.871582,4236.794922,4220.769043,4231.282227,4241.666504,4220.769043,4232.307617,4237.051270,4233.461426,4229.230957,3608.000000,1.000000,15.000000,,,,0.000000,4.000000,4.000000,4.000000,4.000000,4.000000,4.000000,4.000000,4.000000,4.000000,4.000000,4.000000,4.000000,4.000000,4.000000,100.000000,,,,,,,,,,,,,,,,,,,,,,,,,,,,
1649274816.123432,1649274816.119831,116.000000,0.000000,4237.563965,4298.205078,4259.743652,4273.077148,4274.230957,4250.256348,4221.153809,4233.589844,4247.051270,4236.538574,4238.974121,4235.897461,4241.153809,4230.256348,3594.000000,1.000000,15.000000,,,,0.000000,4.000000,4.000000,4.000000,4.000000,4.000000,4.000000,4.000000,4.000000,4.000000,4.000000,4.000000,4.000000,4.000000,4.000000,100.000000,,,,,,,,,,,,,,,,,29.000000,0.000000,0.188200,0.611816,-0.373718,0.671265,0.968277,-0.279789,-0.025879,-33.047989,-102.882431,-1.196307
1649274816.131235,1649274816.127534,117.000000,0.000000,4231.410156,4290.384766,4250.897461,4259.102539,4281.666504,4243.974121,4226.538574,4242.820313,4249.871582,4238.589844,4243.589844,4232.948730,4239.358887,4233.205078,3492.000000,1.000000,15.000000,,,,0.000000,4.000000,4.000000,4.000000,4.000000,4.000000,4.000000,4.000000,4.000000,4.000000,4.000000,4.000000,4.000000,4.000000,4.000000,100.000000,,,,,,,,,,,,,,,,,,,,,,,,,,,,
1649274816.139038,1649274816.135337,118.000000,0.000000,4228.974121,4279.102539,4244.487305,4258.717773,4270.897461,4234.615234,4228.846191,4237.179688,4245.769043,4231.282227,4240.641113,4231.666504,4232.948730,4229.871582,3618.000000,1.000000,15.000000,,,,0.000000,4.000000,4.000000,4.000000,4.000000,4.000000,4.000000,4.000000,4.000000,4.000000,4.000000,4.000000,4.000000,4.000000,4.000000,100.000000,,,,,,,,,,,,,,,,,,,,,,,,,,,,
1649274816.146841,1649274816.143140,119.000000,0.000000,4232.307617,4278.846191,4242.948730,4263.717773,4260.384766,4233.077148,4226.410156,4228.974121,4244.615234,4232.820313,4241.153809,4230.641113,4236.922852,4223.846191,3608.000000,1.000000,15.000000,,,,0.000000,4.000000,4.000000,4.000000,4.000000,4.000000,4.000000,4.000000,4.000000,4.000000,4.000000,4.000000,4.000000,4.000000,4.000000,100.000000,,,,,,,,,,,,,,,,,,,,,,,,,,,,
1649274816.154644,1649274816.150843,120.000000,0.000000,4231.025879,4279.743652,4242.692383,4252.563965,4266.794922,4234.358887,4231.794922,4241.666504,4249.743652,4233.717773,4243.205078,4233.717773,4245.769043,4227.563965,3594.000000,1.000000,15.000000,,,,0.000000,4.000000,4.000000,4.000000,4.000000,4.000000,4.000000,4.000000,4.000000,4.000000,4.000000,4.000000,4.000000,4.000000,4.000000,100.000000,,,,,,,,,,,,,,,,,30.000000,0.000000,0.188017,0.612000,-0.373291,0.671387,0.970230,-0.284672,-0.025391,-32.898453,-103.779663,-0.299077
1649274816.162447,1649274816.158546,121.000000,0.000000,4229.871582,4277.436035,4246.666504,4249.743652,4270.512695,4235.000000,4236.025879,4240.384766,4238.974121,4230.256348,4246.025879,4240.256348,4248.461426,4244.487305,3492.000000,1.000000,15.000000,,,,0.000000,4.000000,4.000000,4.000000,4.000000,4.000000,4.000000,4.000000,4.000000,4.000000,4.000000,4.000000,4.000000,4.000000,4.000000,100.000000,,,,,,,,,,,,,,,,,,,,,,,,,,,,
1649274816.170250,1649274816.166449,122.000000,0.000000,4233.461426,4272.820313,4245.512695,4258.846191,4254.358887,4232.436035,4228.077148,4224.871582,4232.307617,4229.102539,4247.948730,4237.563965,4248.846191,4249.230957,3618.000000,1.000000,15.000000,,,,0.000000,4.000000,4.000000,4.000000,4.000000,4.000000,4.000000,4.000000,4.000000,4.000000,4.000000,4.000000,4.000000,4.000000,4.000000,100.000000,,,,,,,,,,,,,,,,,,,,,,,,,,,,
1649274816.178053,1649274816.174252,123.000000,0.000000,4240.769043,4272.436035,4244.615234,4262.436035,4243.461426,4232.307617,4227.948730,4233.333496,4246.410156,4236.666504,4248.461426,4235.128418,4257.179688,4245.000000,3608.000000,1.000000,15.000000,,,,0.000000,4.000000,4.000000,4.000000,4.000000,4.000000,4.000000,4.000000,4.000000,4.000000,4.000000,4.000000,4.000000,4.000000,4.000000,100.000000,,,,,,,,,,,,,,,,,,,,,,,,,,,,
1649274816.185856,1649274816.182155,124.000000,0.000000,4248.333496,4280.384766,4257.051270,4258.333496,4259.615234,4243.717773,4242.563965,4246.410156,4250.000000,4244.743652,4257.948730,4246.282227,4270.769043,4257.436035,3594.000000,1.000000,15.000000,,,,0.000000,4.000000,4.000000,4.000000,4.000000,4.000000,4.000000,4.000000,4.000000,4.000000,4.000000,4.000000,4.000000,4.000000,4.000000,100.000000,,,,,,,,,,,,,,,,,31.000000,0.000000,0.187730,0.612244,-0.372925,0.671448,0.958511,-0.271000,-0.025391,-33.945221,-105.125504,-2.243076
1649274816.193658,1649274816.190058,125.000000,0.000000,4252.307617,4282.051270,4265.128418,4257.820313,4277.820313,4250.641113,4244.102539,4244.102539,4251.153809,4249.358887,4265.769043,4253.846191,4278.846191,4265.384766,3492.000000,1.000000,15.000000,,,,0.000000,4.000000,4.000000,4.000000,4.000000,4.000000,4.000000,4.000000,4.000000,4.000000,4.000000,4.000000,4.000000,4.000000,4.000000,100.000000,,,,,,,,,,,,,,,,,,,,,,,,,,,,
1649274816.201461,1649274816.197861,126.000000,0.000000,4255.000000,4280.641113,4263.077148,4271.794922,4277.948730,4243.589844,4234.615234,4244.743652,4265.000000,4259.230957,4263.077148,4250.769043,4276.794922,4257.051270,3618.000000,1.000000,15.000000,,,,0.000000,4.000000,4.000000,4.000000,4.000000,4.000000,4.000000,4.000000,4.000000,4.000000,4.000000,4.000000,4.000000,4.000000,4.000000,100.000000,,,,,,,,,,,,,,,,,,,,,,,,,,,,
1649274816.209264,1649274816.205664,127.000000,0.000000,4250.384766,4283.461426,4261.153809,4280.128418,4277.436035,4246.410156,4240.897461,4250.256348,4258.077148,4255.769043,4263.077148,4250.897461,4273.333496,4253.717773,52.000000,1.000000,15.000000,,,,0.000000,4.000000,4.000000,4.000000,4.000000,4.000000,4.000000,4.000000,4.000000,4.000000,4.000000,4.000000,4.000000,4.000000,4.000000,100.000000,,,,,,,,,,,,,,,,,,,,,,,,,,,,
1649274816.217067,1649274816.213567,0.000000,0.000000,4236.410156,4278.205078,4255.897461,4266.666504,4268.717773,4256.794922,4250.128418,4246.538574,4244.102539,4235.769043,4258.846191,4250.897461,4261.794922,4255.769043,3339.000000,1.000000,15.000000,,,,0.000000,4.000000,4.000000,4.000000,4.000000,4.000000,4.000000,4.000000,4.000000,4.000000,4.000000,4.000000,4.000000,4.000000,4.000000,100.000000,,,,,,,,,,,,,,,,,0.000000,0.000000,0.187661,0.612488,-0.372559,0.671448,0.967300,-0.275883,-0.037598,-32.150761,-103.779663,-1.046769
1649274816.224870,1649274816.221469,1.000000,0.000000,4225.512695,4264.102539,4246.410156,4250.769043,4245.000000,4244.615234,4242.307617,4247.692383,4259.358887,4226.666504,4244.358887,4244.615234,4243.974121,4242.692383,3560.000000,1.000000,15.000000,,,,0.000000,4.000000,4.000000,4.000000,4.000000,4.000000,4.000000,4.000000,4.000000,4.000000,4.000000,4.000000,4.000000,4.000000,4.000000,100.000000,,,,,,,,,,,,,,,,,,,,,,,,,,,,
1649274816.232673,1649274816.229272,2.000000,0.000000,4225.512695,4252.820313,4243.717773,4248.077148,4245.641113,4235.897461,4238.717773,4253.974121,4260.000000,4227.179688,4240.128418,4241.538574,4243.205078,4232.051270,3550.000000,1.000000,15.000000,,,,0.000000,4.000000,4.000000,4.000000,4.000000,4.000000,4.000000,4.000000,4.000000,4.000000,4.000000,4.000000,4.000000,4.000000,4.000000,100.000000,,,,,,,,,,,,,,,,,,,,,,,,,,,,
1649274816.240476,1649274816.237075,3.000000,0.000000,4225.128418,4245.641113,4244.230957,4242.692383,4268.205078,4246.282227,4250.897461,4260.128418,4245.769043,4221.025879,4250.128418,4245.384766,4249.487305,4239.102539,3622.000000,1.000000,15.000000,,,,0.000000,4.000000,4.000000,4.000000,4.000000,4.000000,4.000000,4.000000,4.000000,4.000000,4.000000,4.000000,4.000000,4.000000,4.000000,100.000000,,,,,,,,,,,,,,,,,,,,,,,,,,,,
1649274816.248279,1649274816.244978,4.000000,0.000000,4221.153809,4245.897461,4242.436035,4238.333496,4264.743652,4242.179688,4254.358887,4274.230957,4258.205078,4228.077148,4256.410156,4250.512695,4246.025879,4246.282227,3600.000000,1.000000,15.000000,,,,0.000000,4.000000,4.000000,4.000000,4.000000,4.000000,4.000000,4.000000,4.000000,4.000000,4.000000,4.000000,4.000000,4.000000,4.000000,100.000000,,,,,,,,,,,,,,,,,1.000000,0.000000,0.187742,0.612671,-0.372437,0.671326,0.964370,-0.276371,-0.041016,-31.103991,-103.929199,-0.897231
1649274816.256082,1649274816.252881,5.000000,0.000000,4225.512695,4258.589844,4253.077148,4250.128418,4246.410156,4233.461426,4249.743652,4279.743652,4267.820313,4248.461426,4259.615234,4252.051270,4251.922852,4249.871582,3612.000000,1.000000,15.000000,,,,0.000000,4.000000,4.000000,4.000000,4.000000,4.000000,4.000000,4.000000,4.000000,4.000000,4.000000,4.000000,4.000000,4.000000,4.000000,100.000000,,,,,,,,,,,,,,,,,,,,,,,,,,,,
1649274816.263885,1649274816.260684,6.000000,0.000000,4233.846191,4266.794922,4264.487305,4262.820313,4251.922852,4243.589844,4256.410156,4270.897461,4258.205078,4249.102539,4261.538574,4251.410156,4263.077148,4245.000000,3618.000000,1.000000,15.000000,,,,0.000000,4.000000,4.000000,4.000000,4.000000,4.000000,4.000000,4.000000,4.000000,4.000000,4.000000,4.000000,4.000000,4.000000,4.000000,100.000000,,,,,,,,,,,,,,,,,,,,,,,,,,,,
1649274816.271688,1649274816.268487,7.000000,0.000000,4232.948730,4259.230957,4258.846191,4260.641113,4262.948730,4248.717773,4260.000000,4258.205078,4249.102539,4230.512695,4252.051270,4249.615234,4251.025879,4235.128418,3601.000000,1.000000,15.000000,,,,0.000000,4.000000,4.000000,4.000000,4.000000,4.000000,4.000000,4.000000,4.000000,4.000000,4.000000,4.000000,4.000000,4.000000,4.000000,100.000000,,,,,,,,,,,,,,,,,,,,,,,,,,,,
1649274816.279491,1649274816.276390,8.000000,0.000000,4221.282227,4247.563965,4246.794922,4246.282227,4257.436035,4241.153809,4251.410156,4240.641113,4238.333496,4215.256348,4233.461426,4246.794922,4234.487305,4232.692383,3496.000000,1.000000,15.000000,,,,0.000000,4.000000,4.000000,4.000000,4.000000,4.000000,4.000000,4.000000,4.000000,4.000000,4.000000,4.000000,4.000000,4.000000,4.000000,100.000000,,,,,,,,,,,,,,,,,2.000000,0.000000,0.187508,0.612854,-0.372253,0.671326,0.959487,-0.278325,-0.028809,-32.150761,-104.228271,-2.093538
1649274816.287294,1649274816.284293,9.000000,0.000000,4216.025879,4245.128418,4247.307617,4238.846191,4250.256348,4245.641113,4246.922852,4228.077148,4232.436035,4213.333496,4228.589844,4247.436035,4243.461426,4235.512695,3686.000000,1.000000,15.000000,,,,0.000000,4.000000,4.000000,4.000000,4.000000,4.000000,4.000000,4.000000,4.000000,4.000000,4.000000,4.000000,4.000000,4.000000,4.000000,100.000000,,,,,,,,,,,,,,,,,,,,,,,,,,,,
1649274816.295097,1649274816.292096,10.000000,0.000000,4224.743652,4251.538574,4259.487305,4248.589844,4246.666504,4250.256348,4243.077148,4238.077148,4246.153809,4215.897461,4235.512695,4250.897461,4249.871582,4235.256348,3626.000000,1.000000,15.000000,,,,0.000000,4.000000,4.000000,4.000000,4.000000,4.000000,4.000000,4.000000,4.000000,4.000000,4.000000,4.000000,4.000000,4.000000,4.000000,100.000000,,,,,,,,,,,,,,,,,,,,,,,,,,,,
1649274816.302899,1649274816.299899,11.000000,0.000000,4228.974121,4252.179688,4263.974121,4257.307617,4247.563965,4243.461426,4232.692383,4246.410156,4255.000000,4219.102539,4216.794922,4248.846191,4231.538574,4230.769043,3619.000000,1.000000,15.000000,,,,0.000000,4.000000,4.000000,4.000000,4.000000,4.000000,4.000000,4.000000,4.000000,4.000000,4.000000,4.000000,4.000000,4.000000,4.000000,100.000000,,,,,,,,,,,,,,,,,,,,,,,,,,,,
1649274816.310702,1649274816.307602,12.000000,0.000000,4226.538574,4247.948730,4261.153809,4251.410156,4247.307617,4243.077148,4231.410156,4237.820313,4245.641113,4227.692383,4193.077148,4244.102539,4225.000000,4231.410156,3592.000000,1.000000,15.000000,,,,0.000000,4.000000,4.000000,4.000000,4.000000,4.000000,4.000000,4.000000,4.000000,4.000000,4.000000,4.000000,4.000000,4.000000,4.000000,100.000000,,,,,,,,,,,,,,,,,3.000000,0.000000,0.187453,0.612915,-0.372070,0.671387,0.972671,-0.279789,-0.035157,-32.449837,-105.275047,-0.598154
1649274816.318505,1649274816.315505,13.000000,0.000000,4233.717773,4247.692383,4263.333496,4246.025879,4247.563965,4243.205078,4232.051270,4228.461426,4235.512695,4229.743652,4204.102539,4249.358887,4240.128418,4235.897461,3492.000000,1.000000,15.000000,,,,0.000000,4.000000,4.000000,4.000000,4.000000,4.000000,4.000000,4.000000,4.000000,4.000000,4.000000,4.000000,4.000000,4.000000,4.000000,100.000000,,,,,,,,,,,,,,,,,,,,,,,,,,,,
1649274816.326308,1649274816.323308,14.000000,0.000000,4243.333496,4251.282227,4269.487305,4249.743652,4256.282227,4233.077148,4226.922852,4217.307617,4229.358887,4230.641113,4220.128418,4258.717773,4256.794922,4245.256348,3626.000000,1.000000,15.000000,,,,0.000000,4.000000,4.000000,4.000000,4.000000,4.000000,4.000000,4.000000,4.000000,4.000000,4.000000,4.000000,4.000000,4.000000,4.000000,100.000000,,,,,,,,,,,,,,,,,,,,,,,,,,,,
1649274816.334111,1649274816.331111,15.000000,0.000000,4238.846191,4250.897461,4265.897461,4252.179688,4250.128418,4230.000000,4235.769043,4223.077148,4235.897461,4241.538574,4216.025879,4261.922852,4262.436035,4253.974121,3619.000000,1.000000,15.000000,,,,0.000000,4.000000,4.000000,4.000000,4.000000,4.000000,4.000000,4.000000,4.000000,4.000000,4.000000,4.000000,4.000000,4.000000,4.000000,100.000000,,,,,,,,,,,,,,,,,,,,,,,,,,,,
1649274816.341914,1649274816.338814,16.000000,0.000000,4229.743652,4243.589844,4257.820313,4247.948730,4231.282227,4241.025879,4243.974121,4243.589844,4250.641113,4244.743652,4214.358887,4261.410156,4253.846191,4252.307617,0.000000,1.000000,15.000000,,,,0.000000,4.000000,4.000000,4.000000,4.000000,4.000000,4.000000,4.000000,4.000000,4.000000,4.000000,4.000000,4.000000,4.000000,4.000000,100.000000,,,,,,,,,,,,,,,,,4.000000,0.000000,0.187496,0.612976,-0.371948,0.671387,0.959487,-0.280278,-0.033204,-33.945221,-103.929199,0.149538
1649274816.349717,1649274816.346716,17.000000,0.000000,4230.769043,4248.077148,4258.974121,4246.025879,4244.102539,4245.256348,4232.948730,4241.922852,4250.512695,4236.922852,4217.563965,4262.948730,4253.717773,4245.641113,0.000000,1.000000,15.000000,,,,0.000000,4.000000,4.000000,4.000000,4.000000,4.000000,4.000000,4.000000,4.000000,4.000000,4.000000,4.000000,4.000000,4.000000,4.000000,100.000000,,,,,,,,,,,,,,,,,,,,,,,,,,,,
1649274816.357520,1649274816.354519,18.000000,0.000000,4227.692383,4253.461426,4256.794922,4248.205078,4266.666504,4242.820313,4228.461426,4223.846191,4235.128418,4227.051270,4207.563965,4263.846191,4260.000000,4242.179688,0.000000,1.000000,15.000000,,,,0.000000,4.000000,4.000000,4.000000,4.000000,4.000000,4.000000,4.000000,4.000000,4.000000,4.000000,4.000000,4.000000,4.000000,4.000000,100.000000,,,,,,,,,,,,,,,,,,,,,,,,,,,,
1649274816.365323,1649274816.362322,19.000000,0.000000,4217.179688,4237.820313,4247.179688,4248.333496,4255.512695,4245.000000,4235.769043,4219.230957,4225.512695,4219.615234,4194.487305,4261.153809,4251.153809,4250.256348,0.000000,1.000000,15.000000,,,,0.000000,4.000000,4.000000,4.000000,4.000000,4.000000,4.000000,4.000000,4.000000,4.000000,4.000000,4.000000,4.000000,4.000000,4.000000,100.000000,,,,,,,,,,,,,,,,,,,,,,,,,,,,
1649274816.373126,1649274816.370025,20.000000,0.000000,4215.641113,4231.794922,4243.461426,4245.000000,4239.743652,4244.615234,4232.436035,4226.153809,4234.615234,4221.922852,4191.794922,4253.077148,4242.307617,4247.307617,0.000000,1.000000,15.000000,,,,0.000000,4.000000,4.000000,4.000000,4.000000,4.000000,4.000000,4.000000,4.000000,4.000000,4.000000,4.000000,4.000000,4.000000,4.000000,100.000000,,,,,,,,,,,,,,,,,5.000000,0.000000,0.187738,0.612976,-0.371826,0.671387,0.981949,-0.274418,-0.045411,-33.047989,-105.125504,-0.448615
1649274816.380929,1649274816.377928,21.000000,0.000000,4222.692383,4244.871582,4243.974121,4241.794922,4243.333496,4239.871582,4229.871582,4236.025879,4248.717773,4229.615234,4192.692383,4241.794922,4247.307617,4228.077148,0.000000,1.000000,15.000000,,,,0.000000,4.000000,4.000000,4.000000,4.000000,4.000000,4.000000,4.000000,4.000000,4.000000,4.000000,4.000000,4.000000,4.000000,4.000000,100.000000,,,,,,,,,,,,,,,,,,,,,,,,,,,,
1649274816.388732,1649274816.385731,22.000000,0.000000,4231.538574,4252.692383,4249.102539,4247.179688,4251.282227,4236.153809,4241.794922,4250.256348,4257.820313,4236.282227,4199.230957,4250.256348,4248.205078,4235.897461,0.000000,1.000000,15.000000,,,,0.000000,4.000000,4.000000,4.000000,4.000000,4.000000,4.000000,4.000000,4.000000,4.000000,4.000000,4.000000,4.000000,4.000000,4.000000,100.000000,,,,,,,,,,,,,,,,,,,,,,,,,,,,
1649274816.396535,1649274816.393534,23.000000,0.000000,4235.128418,4256.666504,4258.077148,4251.538574,4256.922852,4233.461426,4245.769043,4252.436035,4257.948730,4239.871582,4203.974121,4265.384766,4245.641113,4258.589844,0.000000,1.000000,15.000000,,,,0.000000,4.000000,4.000000,4.000000,4.000000,4.000000,4.000000,4.000000,4.000000,4.000000,4.000000,4.000000,4.000000,4.000000,4.000000,100.000000,,,,,,,,,,,,,,,,,,,,,,,,,,,,
1649274816.404338,1649274816.401337,24.000000,0.000000,4231.666504,4257.692383,4256.922852,4248.461426,4249.487305,4227.820313,4235.128418,4233.333496,4241.794922,4235.128418,4196.410156,4256.922852,4247.563965,4253.205078,0.000000,1.000000,15.000000,,,,0.000000,4.000000,4.000000,4.000000,4.000000,4.000000,4.000000,4.000000,4.000000,4.000000,4.000000,4.000000,4.000000,4.000000,4.000000,100.000000,,,,,,,,,,,,,,,,,6.000000,0.000000,0.187515,0.613037,-0.371948,0.671326,0.974624,-0.267582,-0.025391,-31.403067,-105.275047,-2.542153
1649274816.412140,1649274816.409140,25.000000,0.000000,4229.358887,4250.769043,4247.051270,4247.307617,4242.820313,4226.282227,4227.563965,4213.974121,4224.615234,4227.692383,4190.384766,4243.333496,4245.897461,4243.846191,0.000000,1.000000,15.000000,,,,0.000000,4.000000,4.000000,4.000000,4.000000,4.000000,4.000000,4.000000,4.000000,4.000000,4.000000,4.000000,4.000000,4.000000,4.000000,100.000000,,,,,,,,,,,,,,,,,,,,,,,,,,,,
1649274816.419943,1649274816.416943,26.000000,0.000000,4231.410156,4254.743652,4245.256348,4252.563965,4256.282227,4236.666504,4229.102539,4215.641113,4231.922852,4233.333496,4199.487305,4246.282227,4253.077148,4254.230957,0.000000,1.000000,15.000000,,,,0.000000,4.000000,4.000000,4.000000,4.000000,4.000000,4.000000,4.000000,4.000000,4.000000,4.000000,4.000000,4.000000,4.000000,4.000000,100.000000,,,,,,,,,,,,,,,,,,,,,,,,,,,,
1649274816.427746,1649274816.424846,27.000000,0.000000,4233.589844,4262.692383,4249.358887,4252.692383,4258.974121,4246.410156,4231.153809,4229.358887,4247.051270,4236.538574,4205.897461,4250.384766,4262.692383,4254.615234,0.000000,1.000000,15.000000,,,,0.000000,4.000000,4.000000,4.000000,4.000000,4.000000,4.000000,4.000000,4.000000,4.000000,4.000000,4.000000,4.000000,4.000000,4.000000,100.000000,,,,,,,,,,,,,,,,,,,,,,,,,,,,
1649274816.435549,1649274816.432749,28.000000,0.000000,4232.820313,4249.487305,4249.615234,4245.769043,4243.205078,4239.102539,4229.487305,4227.563965,4237.563965,4223.717773,4193.461426,4245.000000,4252.051270,4243.333496,0.000000,1.000000,15.000000,,,,0.000000,4.000000,4.000000,4.000000,4.000000,4.000000,4.000000,4.000000,4.000000,4.000000,4.000000,4.000000,4.000000,4.000000,4.000000,100.000000,,,,,,,,,,,,,,,,,7.000000,0.000000,0.186846,0.612915,-0.372375,0.671387,0.963394,-0.261234,-0.032227,-32.748913,-103.929199,0.149538
1649274816.443352,1649274816.440552,29.000000,0.000000,4232.692383,4244.358887,4248.461426,4252.948730,4243.333496,4229.615234,4224.487305,4220.256348,4227.820313,4221.153809,4185.512695,4242.948730,4238.717773,4248.461426,0.000000,1.000000,15.000000,,,,0.000000,4.000000,4.000000,4.000000,4.000000,4.000000,4.000000,4.000000,4.000000,4.000000,4.000000,4.000000,4.000000,4.000000,4.000000,100.000000,,,,,,,,,,,,,,,,,,,,,,,,,,,,
1649274816.451155,1649274816.448355,30.000000,0.000000,4233.205078,4260.641113,4249.358887,4262.436035,4251.282227,4236.410156,4231.922852,4241.666504,4252.436035,4240.641113,4197.307617,4248.333496,4251.538574,4252.692383,0.000000,1.000000,15.000000,,,,0.000000,4.000000,4.000000,4.000000,4.000000,4.000000,4.000000,4.000000,4.000000,4.000000,4.000000,4.000000,4.000000,4.000000,4.000000,100.000000,,,,,,,,,,,,,,,,,,,,,,,,,,,,
1649274816.458958,1649274816.456258,31.000000,0.000000,4226.282227,4262.820313,4248.589844,4253.205078,4248.205078,4247.436035,4249.358887,4263.589844,4271.666504,4249.615234,4205.641113,4250.128418,4262.563965,4238.205078,0.000000,1.000000,15.000000,,,,0.000000,4.000000,4.000000,4.000000,4.000000,4.000000,4.000000,4.000000,4.000000,4.000000,4.000000,4.000000,4.000000,4.000000,4.000000,100.000000,,,,,,,,,,,,,,,,,,,,,,,,,,,,
1649274816.466761,1649274816.464160,32.000000,0.000000,4215.512695,4248.974121,4245.769043,4243.333496,4245.641113,4251.153809,4246.153809,4245.897461,4257.692383,4235.256348,4197.692383,4245.128418,4250.256348,4225.897461,0.000000,1.000000,15.000000,,,,0.000000,4.000000,4.000000,4.000000,4.000000,4.000000,4.000000,4.000000,4.000000,4.000000,4.000000,4.000000,4.000000,4.000000,4.000000,100.000000,,,,,,,,,,,,,,,,,8.000000,0.000000,0.186291,0.612854,-0.372864,0.671326,0.969253,-0.279789,-0.030762,-32.898453,-104.228271,-1.046769
1649274816.474564,1649274816.471963,33.000000,0.000000,4215.512695,4245.384766,4245.256348,4247.436035,4252.179688,4247.307617,4226.666504,4213.077148,4235.256348,4225.769043,4188.717773,4242.307617,4245.897461,4232.820313,0.000000,1.000000,15.000000,,,,0.000000,4.000000,4.000000,4.000000,4.000000,4.000000,4.000000,4.000000,4.000000,4.000000,4.000000,4.000000,4.000000,4.000000,4.000000,100.000000,,,,,,,,,,,,,,,,,,,,,,,,,,,,
1649274816.482367,1649274816.479766,34.000000,0.000000,4217.563965,4251.538574,4244.230957,4250.384766,4250.128418,4238.461426,4224.615234,4206.666504,4221.153809,4228.461426,4181.666504,4238.205078,4249.102539,4235.384766,0.000000,1.000000,15.000000,,,,0.000000,4.000000,4.000000,4.000000,4.000000,4.000000,4.000000,4.000000,4.000000,4.000000,4.000000,4.000000,4.000000,4.000000,4.000000,100.000000,,,,,,,,,,,,,,,,,,,,,,,,,,,,
1649274816.490170,1649274816.487669,35.000000,0.000000,4213.846191,4249.487305,4242.051270,4246.025879,4241.410156,4234.230957,4235.000000,4215.769043,4222.692383,4225.897461,4181.794922,4235.128418,4242.307617,4232.692383,0.000000,1.000000,15.000000,,,,0.000000,4.000000,4.000000,4.000000,4.000000,4.000000,4.000000,4.000000,4.000000,4.000000,4.000000,4.000000,4.000000,4.000000,4.000000,100.000000,,,,,,,,,,,,,,,,,,,,,,,,,,,,
1649274816.497973,1649274816.495572,36.000000,0.000000,4223.846191,4245.128418,4251.025879,4248.205078,4249.102539,4231.410156,4231.153809,4217.179688,4239.743652,4230.384766,4204.102539,4250.256348,4254.615234,4252.820313,0.000000,1.000000,15.000000,,,,0.000000,4.000000,4.000000,4.000000,4.000000,4.000000,4.000000,4.000000,4.000000,4.000000,4.000000,4.000000,4.000000,4.000000,4.000000,100.000000,,,,,,,,,,,,,,,,,9.000000,0.000000,0.185783,0.612793,-0.373108,0.671387,0.970718,-0.286625,-0.032227,-33.347065,-105.574120,-3.289845
1649274816.505776,1649274816.503375,37.000000,0.000000,4239.615234,4255.000000,4260.128418,4257.179688,4260.897461,4233.461426,4227.820313,4218.333496,4246.410156,4250.256348,4223.717773,4267.051270,4281.153809,4268.205078,0.000000,1.000000,15.000000,,,,0.000000,4.000000,4.000000,4.000000,4.000000,4.000000,4.000000,4.000000,4.000000,4.000000,4.000000,4.000000,4.000000,4.000000,4.000000,100.000000,,,,,,,,,,,,,,,,,,,,,,,,,,,,
1649274816.513579,1649274816.511278,38.000000,0.000000,4236.538574,4266.538574,4253.461426,4261.666504,4254.743652,4242.820313,4233.846191,4219.615234,4233.717773,4251.025879,4220.256348,4266.666504,4277.820313,4254.871582,0.000000,1.000000,15.000000,,,,0.000000,4.000000,4.000000,4.000000,4.000000,4.000000,4.000000,4.000000,4.000000,4.000000,4.000000,4.000000,4.000000,4.000000,4.000000,100.000000,,,,,,,,,,,,,,,,,,,,,,,,,,,,
1649274816.521382,1649274816.519081,39.000000,0.000000,4228.846191,4260.512695,4243.589844,4251.922852,4246.025879,4240.769043,4224.230957,4213.589844,4223.846191,4230.512695,4209.358887,4259.102539,4260.256348,4243.461426,0.000000,1.000000,15.000000,,,,0.000000,4.000000,4.000000,4.000000,4.000000,4.000000,4.000000,4.000000,4.000000,4.000000,4.000000,4.000000,4.000000,4.000000,4.000000,100.000000,,,,,,,,,,,,,,,,,,,,,,,,,,,,
1649274816.529184,1649274816.526984,40.000000,0.000000,4230.897461,4248.205078,4237.820313,4245.128418,4243.205078,4229.743652,4210.000000,4210.897461,4227.820313,4228.461426,4203.589844,4248.717773,4257.948730,4244.487305,0.000000,1.000000,15.000000,,,,0.000000,4.000000,4.000000,4.000000,4.000000,4.000000,4.000000,4.000000,4.000000,4.000000,4.000000,4.000000,4.000000,4.000000,4.000000,100.000000,,,,,,,,,,,,,,,,,10.000000,0.000000,0.185556,0.612854,-0.373230,0.671326,0.975113,-0.286137,-0.026856,-33.047989,-105.424583,-1.644923
1649274816.536987,1649274816.534887,41.000000,0.000000,4231.282227,4249.230957,4233.974121,4256.025879,4244.230957,4233.205078,4221.410156,4228.589844,4240.128418,4246.025879,4204.615234,4242.948730,4262.051270,4242.692383,0.000000,1.000000,15.000000,,,,0.000000,4.000000,4.000000,4.000000,4.000000,4.000000,4.000000,4.000000,4.000000,4.000000,4.000000,4.000000,4.000000,4.000000,4.000000,100.000000,,,,,,,,,,,,,,,,,,,,,,,,,,,,
1649274816.544790,1649274816.542690,42.000000,0.000000,4233.333496,4255.512695,4239.487305,4263.589844,4251.025879,4239.743652,4236.794922,4247.948730,4255.000000,4255.256348,4217.179688,4260.641113,4271.794922,4253.461426,0.000000,1.000000,15.000000,,,,0.000000,4.000000,4.000000,4.000000,4.000000,4.000000,4.000000,4.000000,4.000000,4.000000,4.000000,4.000000,4.000000,4.000000,4.000000,100.000000,,,,,,,,,,,,,,,,,,,,,,,,,,,,
1649274816.552593,1649274816.550493,43.000000,0.000000,4236.538574,4251.794922,4249.487305,4252.436035,4256.794922,4232.436035,4230.897461,4240.769043,4251.922852,4243.846191,4229.358887,4279.487305,4278.205078,4278.974121,0.000000,1.000000,15.000000,,,,0.000000,4.000000,4.000000,4.000000,4.000000,4.000000,4.000000,4.000000,4.000000,4.000000,4.000000,4.000000,4.000000,4.000000,4.000000,100.000000,,,,,,,,,,,,,,,,,,,,,,,,,,,,
1649274816.560396,1649274816.558395,44.000000,0.000000,4231.282227,4246.410156,4246.666504,4243.461426,4246.922852,4229.615234,4228.461426,4227.948730,4239.230957,4231.153809,4218.974121,4268.717773,4264.615234,4276.666504,0.000000,1.000000,15.000000,,,,0.000000,4.000000,4.000000,4.000000,4.000000,4.000000,4.000000,4.000000,4.000000,4.000000,4.000000,4.000000,4.000000,4.000000,4.000000,100.000000,1.000000,100.000000,4.000000,4.000000,4.000000,4.000000,4.000000,4.000000,4.000000,4.000000,4.000000,4.000000,4.000000,4.000000,4.000000,4.000000,11.000000,0.000000,0.185478,0.612915,-0.373169,0.671326,0.962417,-0.288090,-0.024414,-33.945221,-104.377815,-1.196307
1649274816.568199,1649274816.566298,45.000000,0.000000,4231.410156,4249.487305,4237.948730,4254.615234,4233.589844,4231.538574,4226.153809,4228.974121,4242.948730,4230.256348,4201.153809,4247.436035,4248.461426,4243.846191,0.000000,1.000000,15.000000,,,,0.000000,4.000000,4.000000,4.000000,4.000000,4.000000,4.000000,4.000000,4.000000,4.000000,4.000000,4.000000,4.000000,4.000000,4.000000,100.000000,,,,,,,,,,,,,,,,,,,,,,,,,,,,
1649274816.576002,1649274816.574101,46.000000,0.000000,4237.820313,4251.922852,4232.563965,4260.897461,4235.384766,4231.153809,4215.512695,4232.179688,4247.692383,4232.307617,4198.846191,4239.487305,4243.461426,4227.436035,0.000000,1.000000,15.000000,,,,0.000000,4.000000,4.000000,4.000000,4.000000,4.000000,4.000000,4.000000,4.000000,4.000000,4.000000,4.000000,4.000000,4.000000,4.000000,100.000000,,,,,,,,,,,,,,,,,,,,,,,,,,,,
1649274816.583805,1649274816.581904,47.000000,0.000000,4240.000000,4249.358887,4233.974121,4249.871582,4253.589844,4240.128418,4223.077148,4231.922852,4243.461426,4235.384766,4212.179688,4247.436035,4246.025879,4242.692383,0.000000,1.000000,15.000000,,,,0.000000,4.000000,4.000000,4.000000,4.000000,4.000000,4.000000,4.000000,4.000000,4.000000,4.000000,4.000000,4.000000,4.000000,4.000000,100.000000,,,,,,,,,,,,,,,,,,,,,,,,,,,,
1649274816.591608,1649274816.589807,48.000000,0.000000,4237.051270,4251.538574,4240.128418,4250.384766,4258.589844,4243.205078,4231.538574,4230.897461,4243.846191,4249.615234,4220.128418,4259.358887,4255.000000,4253.974121,0.000000,1.000000,15.000000,,,,0.000000,4.000000,4.000000,4.000000,4.000000,4.000000,4.000000,4.000000,4.000000,4.000000,4.000000,4.000000,4.000000,4.000000,4.000000,100.000000,,,,,,,,,,,,,,,,,12.000000,0.000000,0.185497,0.612976,-0.373169,0.671265,0.974136,-0.285649,-0.034180,-33.047989,-103.929199,-1.644923
1649274816.599411,1649274816.597710,49.000000,0.000000,4236.538574,4259.358887,4244.358887,4262.692383,4236.282227,4230.000000,4220.512695,4231.922852,4247.820313,4261.025879,4215.641113,4262.692383,4263.974121,4246.794922,0.000000,1.000000,15.000000,,,,0.000000,4.000000,4.000000,4.000000,4.000000,4.000000,4.000000,4.000000,4.000000,4.000000,4.000000,4.000000,4.000000,4.000000,4.000000,100.000000,,,,,,,,,,,,,,,,,,,,,,,,,,,,
1649274816.607214,1649274816.605513,50.000000,0.000000,4242.436035,4263.461426,4242.948730,4264.487305,4231.922852,4224.871582,4218.717773,4240.512695,4253.205078,4256.282227,4216.153809,4260.128418,4266.153809,4245.128418,0.000000,1.000000,15.000000,,,,0.000000,4.000000,4.000000,4.000000,4.000000,4.000000,4.000000,4.000000,4.000000,4.000000,4.000000,4.000000,4.000000,4.000000,4.000000,100.000000,,,,,,,,,,,,,,,,,,,,,,,,,,,,
1649274816.615017,1649274816.613316,51.000000,0.000000,4249.743652,4263.846191,4236.538574,4262.307617,4251.153809,4237.436035,4231.666504,4241.922852,4255.256348,4246.282227,4222.436035,4259.615234,4264.743652,4252.563965,0.000000,1.000000,15.000000,,,,0.000000,4.000000,4.000000,4.000000,4.000000,4.000000,4.000000,4.000000,4.000000,4.000000,4.000000,4.000000,4.000000,4.000000,4.000000,100.000000,,,,,,,,,,,,,,,,,,,,,,,,,,,,
1649274816.622820,1649274816.621219,52.000000,0.000000,4246.666504,4262.051270,4230.384766,4266.410156,4255.512695,4246.666504,4232.179688,4224.102539,4244.871582,4235.641113,4219.358887,4257.692383,4257.179688,4250.256348,0.000000,1.000000,15.000000,,,,0.000000,4.000000,4.000000,4.000000,4.000000,4.000000,4.000000,4.000000,4.000000,4.000000,4.000000,4.000000,4.000000,4.000000,4.000000,100.000000,,,,,,,,,,,,,,,,,13.000000,0.000000,0.185295,0.613037,-0.373169,0.671265,0.964858,-0.282719,-0.041993,-33.496605,-103.630119,-1.196307
1649274816.630623,1649274816.629122,53.000000,0.000000,4239.615234,4259.102539,4233.333496,4265.128418,4252.051270,4247.563965,4226.922852,4219.102539,4241.410156,4232.820313,4210.769043,4254.871582,4245.897461,4240.897461,0.000000,1.000000,15.000000,,,,0.000000,4.000000,4.000000,4.000000,4.000000,4.000000,4.000000,4.000000,4.000000,4.000000,4.000000,4.000000,4.000000,4.000000,4.000000,100.000000,,,,,,,,,,,,,,,,,,,,,,,,,,,,
1649274816.638425,1649274816.636925,54.000000,0.000000,4247.692383,4261.025879,4246.666504,4263.717773,4257.051270,4251.922852,4233.589844,4240.641113,4263.077148,4248.205078,4216.922852,4266.025879,4253.846191,4249.102539,0.000000,1.000000,15.000000,,,,0.000000,4.000000,4.000000,4.000000,4.000000,4.000000,4.000000,4.000000,4.000000,4.000000,4.000000,4.000000,4.000000,4.000000,4.000000,100.000000,,,,,,,,,,,,,,,,,,,,,,,,,,,,
1649274816.646228,1649274816.644728,55.000000,0.000000,4256.922852,4264.615234,4255.897461,4267.179688,4263.974121,4252.692383,4236.666504,4248.461426,4271.666504,4254.487305,4235.384766,4278.974121,4276.282227,4268.077148,0.000000,1.000000,15.000000,,,,0.000000,4.000000,4.000000,4.000000,4.000000,4.000000,4.000000,4.000000,4.000000,4.000000,4.000000,4.000000,4.000000,4.000000,4.000000,100.000000,,,,,,,,,,,,,,,,,,,,,,,,,,,,
1649274816.654031,1649274816.652431,56.000000,0.000000,4246.666504,4262.563965,4246.666504,4265.256348,4260.128418,4247.307617,4229.358887,4232.692383,4255.128418,4246.025879,4239.358887,4270.512695,4278.205078,4266.025879,0.000000,1.000000,15.000000,,,,0.000000,4.000000,4.000000,4.000000,4.000000,4.000000,4.000000,4.000000,4.000000,4.000000,4.000000,4.000000,4.000000,4.000000,4.000000,100.000000,,,,,,,,,,,,,,,,,14.000000,0.000000,0.185560,0.613098,-0.373047,0.671204,0.972183,-0.279789,-0.036622,-33.496605,-103.929199,-0.448615
1649274816.661834,1649274816.660333,57.000000,0.000000,4232.436035,4260.897461,4233.461426,4262.563965,4251.666504,4243.333496,4228.461426,4230.000000,4247.563965,4250.769043,4224.102539,4261.153809,4259.230957,4248.846191,0.000000,1.000000,15.000000,,,,0.000000,4.000000,4.000000,4.000000,4.000000,4.000000,4.000000,4.000000,4.000000,4.000000,4.000000,4.000000,4.000000,4.000000,4.000000,100.000000,,,,,,,,,,,,,,,,,,,,,,,,,,,,
1649274816.669637,1649274816.668136,58.000000,0.000000,4229.487305,4256.666504,4230.641113,4263.077148,4241.922852,4237.820313,4233.333496,4236.922852,4250.769043,4255.000000,4216.282227,4263.461426,4251.922852,4240.769043,0.000000,1.000000,15.000000,,,,0.000000,4.000000,4.000000,4.000000,4.000000,4.000000,4.000000,4.000000,4.000000,4.000000,4.000000,4.000000,4.000000,4.000000,4.000000,100.000000,,,,,,,,,,,,,,,,,,,,,,,,,,,,
1649274816.677440,1649274816.675939,59.000000,0.000000,4231.025879,4246.410156,4230.384766,4259.871582,4242.436035,4227.436035,4226.666504,4226.922852,4247.436035,4242.436035,4219.871582,4254.615234,4258.974121,4236.794922,0.000000,1.000000,15.000000,,,,0.000000,4.000000,4.000000,4.000000,4.000000,4.000000,4.000000,4.000000,4.000000,4.000000,4.000000,4.000000,4.000000,4.000000,4.000000,100.000000,,,,,,,,,,,,,,,,,,,,,,,,,,,,
1649274816.685243,1649274816.683642,60.000000,0.000000,4232.948730,4246.410156,4232.820313,4258.205078,4251.410156,4227.948730,4220.384766,4219.230957,4242.307617,4239.871582,4218.589844,4244.358887,4261.666504,4237.179688,0.000000,1.000000,15.000000,,,,0.000000,4.000000,4.000000,4.000000,4.000000,4.000000,4.000000,4.000000,4.000000,4.000000,4.000000,4.000000,4.000000,4.000000,4.000000,100.000000,,,,,,,,,,,,,,,,,15.000000,0.000000,0.185442,0.613037,-0.372986,0.671326,0.962905,-0.281743,-0.036622,-33.496605,-103.929199,-0.149538
1649274816.693046,1649274816.691545,61.000000,0.000000,4241.153809,4255.256348,4243.333496,4261.282227,4255.384766,4240.128418,4229.743652,4229.871582,4245.641113,4250.000000,4220.384766,4257.179688,4263.333496,4254.615234,0.000000,1.000000,15.000000,,,,0.000000,4.000000,4.000000,4.000000,4.000000,4.000000,4.000000,4.000000,4.000000,4.000000,4.000000,4.000000,4.000000,4.000000,4.000000,100.000000,,,,,,,,,,,,,,,,,,,,,,,,,,,,
1649274816.700849,1649274816.699348,62.000000,0.000000,4250.384766,4263.461426,4248.589844,4264.358887,4263.974121,4245.769043,4237.820313,4239.871582,4254.487305,4253.717773,4235.000000,4270.512695,4274.230957,4267.820313,0.000000,1.000000,15.000000,,,,0.000000,4.000000,4.000000,4.000000,4.000000,4.000000,4.000000,4.000000,4.000000,4.000000,4.000000,4.000000,4.000000,4.000000,4.000000,100.000000,,,,,,,,,,,,,,,,,,,,,,,,,,,,
1649274816.708652,1649274816.707251,63.000000,0.000000,4248.333496,4263.846191,4244.743652,4265.256348,4262.307617,4246.666504,4236.666504,4238.846191,4254.358887,4248.077148,4240.000000,4266.794922,4280.512695,4257.051270,0.000000,1.000000,15.000000,,,,0.000000,4.000000,4.000000,4.000000,4.000000,4.000000,4.000000,4.000000,4.000000,4.000000,4.000000,4.000000,4.000000,4.000000,4.000000,100.000000,,,,,,,,,,,,,,,,,,,,,,,,,,,,
1649274816.716455,1649274816.715154,64.000000,0.000000,4239.358887,4257.051270,4245.384766,4265.000000,4242.820313,4245.897461,4232.051270,4228.589844,4244.102539,4248.205078,4230.000000,4262.563965,4274.615234,4246.025879,3339.000000,1.000000,15.000000,,,,0.000000,4.000000,4.000000,4.000000,4.000000,4.000000,4.000000,4.000000,4.000000,4.000000,4.000000,4.000000,4.000000,4.000000,4.000000,100.000000,,,,,,,,,,,,,,,,,16.000000,0.000000,0.185442,0.613037,-0.372986,0.671326,0.972671,-0.278325,-0.028321,-33.496605,-103.630119,-0.897231
1649274816.724258,1649274816.722957,65.000000,0.000000,4233.333496,4251.922852,4242.307617,4262.436035,4239.487305,4244.487305,4234.230957,4230.384766,4249.615234,4256.794922,4233.077148,4261.538574,4275.897461,4246.153809,3556.000000,1.000000,15.000000,,,,0.000000,4.000000,4.000000,4.000000,4.000000,4.000000,4.000000,4.000000,4.000000,4.000000,4.000000,4.000000,4.000000,4.000000,4.000000,100.000000,,,,,,,,,,,,,,,,,,,,,,,,,,,,
1649274816.732061,1649274816.730760,66.000000,0.000000,4233.717773,4253.717773,4234.615234,4262.307617,4259.358887,4243.589844,4241.538574,4248.974121,4266.666504,4265.128418,4246.282227,4262.948730,4291.794922,4249.230957,3554.000000,1.000000,15.000000,,,,0.000000,4.000000,4.000000,4.000000,4.000000,4.000000,4.000000,4.000000,4.000000,4.000000,4.000000,4.000000,4.000000,4.000000,4.000000,100.000000,,,,,,,,,,,,,,,,,,,,,,,,,,,,
1649274816.739864,1649274816.738563,67.000000,0.000000,4240.512695,4253.077148,4240.256348,4264.615234,4262.179688,4238.077148,4233.461426,4240.000000,4253.205078,4263.205078,4248.333496,4267.692383,4297.051270,4257.179688,3628.000000,1.000000,15.000000,,,,0.000000,4.000000,4.000000,4.000000,4.000000,4.000000,4.000000,4.000000,4.000000,4.000000,4.000000,4.000000,4.000000,4.000000,4.000000,100.000000,,,,,,,,,,,,,,,,,,,,,,,,,,,,
1649274816.747666,1649274816.746266,68.000000,0.000000,4251.025879,4247.436035,4251.153809,4264.615234,4249.615234,4238.846191,4220.256348,4209.615234,4227.563965,4254.743652,4243.205078,4269.358887,4287.051270,4268.205078,3608.000000,1.000000,15.000000,,,,0.000000,4.000000,4.000000,4.000000,4.000000,4.000000,4.000000,4.000000,4.000000,4.000000,4.000000,4.000000,4.000000,4.000000,4.000000,100.000000,,,,,,,,,,,,,,,,,17.000000,0.000000,0.185565,0.613037,-0.372925,0.671326,0.974136,-0.279789,-0.031250,-31.702145,-104.527351,-1.794461
1649274816.755469,1649274816.754169,69.000000,0.000000,4256.025879,4250.897461,4250.641113,4267.820313,4245.000000,4246.538574,4227.692383,4224.743652,4242.948730,4247.948730,4239.871582,4268.974121,4279.487305,4267.948730,3619.000000,1.000000,15.000000,,,,0.000000,4.000000,4.000000,4.000000,4.000000,4.000000,4.000000,4.000000,4.000000,4.000000,4.000000,4.000000,4.000000,4.000000,4.000000,100.000000,,,,,,,,,,,,,,,,,,,,,,,,,,,,
1649274816.763272,1649274816.761972,70.000000,0.000000,4241.538574,4250.769043,4238.974121,4265.000000,4237.820313,4245.512695,4228.974121,4245.769043,4258.846191,4238.974121,4225.897461,4261.410156,4269.743652,4247.563965,3635.000000,1.000000,15.000000,,,,0.000000,4.000000,4.000000,4.000000,4.000000,4.000000,4.000000,4.000000,4.000000,4.000000,4.000000,4.000000,4.000000,4.000000,4.000000,100.000000,,,,,,,,,,,,,,,,,,,,,,,,,,,,
1649274816.771075,1649274816.769775,71.000000,0.000000,4217.820313,4235.512695,4225.641113,4250.256348,4241.538574,4243.333496,4215.384766,4220.512695,4232.436035,4229.230957,4208.077148,4247.051270,4255.384766,4229.102539,3608.000000,1.000000,15.000000,,,,0.000000,4.000000,4.000000,4.000000,4.000000,4.000000,4.000000,4.000000,4.000000,4.000000,4.000000,4.000000,4.000000,4.000000,4.000000,100.000000,,,,,,,,,,,,,,,,,,,,,,,,,,,,
1649274816.778878,1649274816.777578,72.000000,0.000000,4217.051270,4227.179688,4223.461426,4244.743652,4262.307617,4248.974121,4227.051270,4217.948730,4228.589844,4236.410156,4220.128418,4248.461426,4259.487305,4233.846191,3507.000000,1.000000,15.000000,,,,0.000000,4.000000,4.000000,4.000000,4.000000,4.000000,4.000000,4.000000,4.000000,4.000000,4.000000,4.000000,4.000000,4.000000,4.000000,100.000000,,,,,,,,,,,,,,,,,18.000000,0.000000,0.185541,0.613037,-0.373047,0.671265,0.971206,-0.275883,-0.031250,-32.300297,-103.929199,-0.897231
1649274816.786681,1649274816.785381,73.000000,0.000000,4232.563965,4236.153809,4231.153809,4248.974121,4267.051270,4240.384766,4238.205078,4248.846191,4260.128418,4264.615234,4245.641113,4266.538574,4280.641113,4251.410156,3696.000000,1.000000,15.000000,,,,0.000000,4.000000,4.000000,4.000000,4.000000,4.000000,4.000000,4.000000,4.000000,4.000000,4.000000,4.000000,4.000000,4.000000,4.000000,100.000000,,,,,,,,,,,,,,,,,,,,,,,,,,,,
1649274816.794484,1649274816.793184,74.000000,0.000000,4233.461426,4243.205078,4237.051270,4248.461426,4244.487305,4226.922852,4221.410156,4252.307617,4271.794922,4286.282227,4248.333496,4276.410156,4290.000000,4262.692383,3630.000000,1.000000,15.000000,,,,0.000000,4.000000,4.000000,4.000000,4.000000,4.000000,4.000000,4.000000,4.000000,4.000000,4.000000,4.000000,4.000000,4.000000,4.000000,100.000000,,,,,,,,,,,,,,,,,,,,,,,,,,,,
1649274816.802287,1649274816.801086,75.000000,0.000000,4231.153809,4243.333496,4243.846191,4255.384766,4229.615234,4236.922852,4220.769043,4250.769043,4271.025879,4281.410156,4251.666504,4280.641113,4292.692383,4268.717773,3625.000000,1.000000,15.000000,,,,0.000000,4.000000,4.000000,4.000000,4.000000,4.000000,4.000000,4.000000,4.000000,4.000000,4.000000,4.000000,4.000000,4.000000,4.000000,100.000000,,,,,,,,,,,,,,,,,,,,,,,,,,,,
1649274816.810090,1649274816.808989,76.000000,0.000000,4239.102539,4248.333496,4248.077148,4266.282227,4241.794922,4249.358887,4236.282227,4260.512695,4274.615234,4269.871582,4264.358887,4280.897461,4296.410156,4268.717773,3609.000000,1.000000,15.000000,,,,0.000000,4.000000,4.000000,4.000000,4.000000,4.000000,4.000000,4.000000,4.000000,4.000000,4.000000,4.000000,4.000000,4.000000,4.000000,100.000000,,,,,,,,,,,,,,,,,19.000000,0.000000,0.185216,0.613098,-0.373108,0.671265,0.958022,-0.286137,-0.031250,-32.150761,-105.275047,-1.046769
1649274816.817893,1649274816.816792,77.000000,0.000000,4237.820313,4244.615234,4239.871582,4257.436035,4252.051270,4247.820313,4234.358887,4254.358887,4262.820313,4260.641113,4256.666504,4271.025879,4289.102539,4258.846191,3499.000000,1.000000,15.000000,,,,0.000000,4.000000,4.000000,4.000000,4.000000,4.000000,4.000000,4.000000,4.000000,4.000000,4.000000,4.000000,4.000000,4.000000,4.000000,100.000000,,,,,,,,,,,,,,,,,,,,,,,,,,,,
1649274816.825696,1649274816.824595,78.000000,0.000000,4227.692383,4231.922852,4232.307617,4244.358887,4245.897461,4248.461426,4234.743652,4255.769043,4257.307617,4253.974121,4239.871582,4265.000000,4275.384766,4253.589844,3630.000000,1.000000,15.000000,,,,0.000000,4.000000,4.000000,4.000000,4.000000,4.000000,4.000000,4.000000,4.000000,4.000000,4.000000,4.000000,4.000000,4.000000,4.000000,100.000000,,,,,,,,,,,,,,,,,,,,,,,,,,,,
1649274816.833499,1649274816.832398,79.000000,0.000000,4219.871582,4229.102539,4229.615234,4246.922852,4241.794922,4250.000000,4247.820313,4270.128418,4267.948730,4249.615234,4233.717773,4262.948730,4266.666504,4249.487305,3625.000000,1.000000,15.000000,,,,0.000000,4.000000,4.000000,4.000000,4.000000,4.000000,4.000000,4.000000,4.000000,4.000000,4.000000,4.000000,4.000000,4.000000,4.000000,100.000000,,,,,,,,,,,,,,,,,,,,,,,,,,,,
1649274816.841302,1649274816.840201,80.000000,0.000000,4216.538574,4233.846191,4227.051270,4251.025879,4245.641113,4241.153809,4238.717773,4257.179688,4256.922852,4246.153809,4227.820313,4256.794922,4258.461426,4241.410156,3609.000000,1.000000,15.000000,,,,0.000000,4.000000,4.000000,4.000000,4.000000,4.000000,4.000000,4.000000,4.000000,4.000000,4.000000,4.000000,4.000000,4.000000,4.000000,100.000000,,,,,,,,,,,,,,,,,20.000000,0.000000,0.185216,0.613098,-0.373108,0.671265,0.973648,-0.291997,-0.040528,-33.496605,-103.630119,-0.897231
1649274816.849105,1649274816.848104,81.000000,0.000000,4222.051270,4235.000000,4231.794922,4252.051270,4246.025879,4228.205078,4215.769043,4241.794922,4248.846191,4254.487305,4234.358887,4260.384766,4258.077148,4243.589844,3499.000000,1.000000,15.000000,,,,0.000000,4.000000,4.000000,4.000000,4.000000,4.000000,4.000000,4.000000,4.000000,4.000000,4.000000,4.000000,4.000000,4.000000,4.000000,100.000000,,,,,,,,,,,,,,,,,,,,,,,,,,,,
1649274816.856907,1649274816.855907,82.000000,0.000000,4229.615234,4234.102539,4235.897461,4248.846191,4249.615234,4224.615234,4210.897461,4250.128418,4267.051270,4267.307617,4245.897461,4269.743652,4265.512695,4257.436035,3630.000000,1.000000,15.000000,,,,0.000000,4.000000,4.000000,4.000000,4.000000,4.000000,4.000000,4.000000,4.000000,4.000000,4.000000,4.000000,4.000000,4.000000,4.000000,100.000000,,,,,,,,,,,,,,,,,,,,,,,,,,,,
1649274816.864710,1649274816.863710,83.000000,0.000000,4227.436035,4232.307617,4231.282227,4242.179688,4253.205078,4234.615234,4213.589844,4245.897461,4259.871582,4259.615234,4239.102539,4268.717773,4268.589844,4260.512695,3625.000000,1.000000,15.000000,,,,0.000000,4.000000,4.000000,4.000000,4.000000,4.000000,4.000000,4.000000,4.000000,4.000000,4.000000,4.000000,4.000000,4.000000,4.000000,100.000000,,,,,,,,,,,,,,,,,,,,,,,,,,,,
1649274816.872513,1649274816.871613,84.000000,0.000000,4230.897461,4235.256348,4238.461426,4251.410156,4243.205078,4247.563965,4215.769043,4237.179688,4241.794922,4240.897461,4243.461426,4266.922852,4271.410156,4249.102539,3609.000000,1.000000,15.000000,,,,0.000000,4.000000,4.000000,4.000000,4.000000,4.000000,4.000000,4.000000,4.000000,4.000000,4.000000,4.000000,4.000000,4.000000,4.000000,100.000000,,,,,,,,,,,,,,,,,21.000000,0.000000,0.184995,0.613098,-0.373108,0.671326,0.969741,-0.275395,-0.031739,-32.898453,-103.779663,0.299077
1649274816.880316,1649274816.879516,85.000000,0.000000,4238.846191,4238.077148,4250.256348,4260.512695,4234.743652,4250.641113,4223.589844,4249.358887,4258.333496,4243.974121,4255.128418,4270.256348,4271.538574,4245.384766,3499.000000,1.000000,15.000000,,,,0.000000,4.000000,4.000000,4.000000,4.000000,4.000000,4.000000,4.000000,4.000000,4.000000,4.000000,4.000000,4.000000,4.000000,4.000000,100.000000,,,,,,,,,,,,,,,,,,,,,,,,,,,,
1649274816.888119,1649274816.887319,86.000000,0.000000,4227.051270,4232.563965,4241.538574,4250.256348,4234.487305,4242.948730,4230.897461,4251.538574,4268.461426,4258.333496,4238.077148,4265.256348,4262.307617,4250.641113,3630.000000,1.000000,15.000000,,,,0.000000,4.000000,4.000000,4.000000,4.000000,4.000000,4.000000,4.000000,4.000000,4.000000,4.000000,4.000000,4.000000,4.000000,4.000000,100.000000,,,,,,,,,,,,,,,,,,,,,,,,,,,,
1649274816.895922,1649274816.895122,87.000000,0.000000,4212.051270,4230.641113,4230.000000,4245.000000,4232.307617,4235.769043,4231.025879,4245.641113,4255.512695,4260.897461,4227.692383,4262.692383,4260.897461,4255.897461,3625.000000,1.000000,15.000000,,,,0.000000,4.000000,4.000000,4.000000,4.000000,4.000000,4.000000,4.000000,4.000000,4.000000,4.000000,4.000000,4.000000,4.000000,4.000000,100.000000,,,,,,,,,,,,,,,,,,,,,,,,,,,,
1649274816.903725,1649274816.903024,88.000000,0.000000,4220.000000,4229.102539,4235.384766,4249.871582,4236.153809,4239.230957,4230.128418,4258.333496,4263.205078,4262.436035,4247.307617,4271.282227,4267.563965,4263.717773,3609.000000,1.000000,15.000000,,,,0.000000,4.000000,4.000000,4.000000,4.000000,4.000000,4.000000,4.000000,4.000000,4.000000,4.000000,4.000000,4.000000,4.000000,4.000000,100.000000,,,,,,,,,,,,,,,,,22.000000,0.000000,0.185074,0.613037,-0.373169,0.671326,0.975601,-0.289555,-0.033692,-33.496605,-103.630119,0.149538
1649274816.911528,1649274816.910827,89.000000,0.000000,4230.512695,4229.358887,4241.922852,4248.077148,4251.666504,4246.922852,4231.666504,4263.846191,4268.974121,4263.077148,4254.743652,4273.717773,4268.589844,4265.000000,3499.000000,1.000000,15.000000,,,,0.000000,4.000000,4.000000,4.000000,4.000000,4.000000,4.000000,4.000000,4.000000,4.000000,4.000000,4.000000,4.000000,4.000000,4.000000,100.000000,,,,,,,,,,,,,,,,,,,,,,,,,,,,
1649274816.919331,1649274816.918730,90.000000,0.000000,4223.333496,4234.743652,4237.563965,4246.025879,4249.871582,4247.563965,4231.794922,4247.179688,4250.769043,4256.410156,4239.102539,4260.769043,4262.179688,4248.205078,3630.000000,1.000000,15.000000,,,,0.000000,4.000000,4.000000,4.000000,4.000000,4.000000,4.000000,4.000000,4.000000,4.000000,4.000000,4.000000,4.000000,4.000000,4.000000,100.000000,,,,,,,,,,,,,,,,,,,,,,,,,,,,
1649274816.927134,1649274816.926533,91.000000,0.000000,4215.897461,4230.641113,4231.538574,4247.948730,4236.153809,4242.307617,4229.487305,4236.025879,4241.922852,4243.974121,4226.794922,4248.333496,4247.563965,4231.794922,3625.000000,1.000000,15.000000,,,,0.000000,4.000000,4.000000,4.000000,4.000000,4.000000,4.000000,4.000000,4.000000,4.000000,4.000000,4.000000,4.000000,4.000000,4.000000,100.000000,,,,,,,,,,,,,,,,,,,,,,,,,,,,
1649274816.934937,1649274816.934436,92.000000,0.000000,4212.179688,4221.025879,4226.282227,4244.743652,4237.692383,4238.717773,4226.794922,4234.102539,4244.230957,4233.461426,4225.000000,4245.897461,4236.410156,4228.717773,3609.000000,1.000000,15.000000,,,,0.000000,4.000000,4.000000,4.000000,4.000000,4.000000,4.000000,4.000000,4.000000,4.000000,4.000000,4.000000,4.000000,4.000000,4.000000,100.000000,,,,,,,,,,,,,,,,,23.000000,0.000000,0.184764,0.612915,-0.373413,0.671387,0.968277,-0.283696,-0.032715,-31.851683,-105.125504,-1.644923
1649274816.942740,1649274816.942239,93.000000,0.000000,4208.717773,4227.436035,4223.589844,4246.282227,4239.743652,4232.307617,4227.179688,4237.051270,4245.769043,4241.538574,4232.051270,4248.589844,4250.000000,4229.102539,3499.000000,1.000000,15.000000,,,,0.000000,4.000000,4.000000,4.000000,4.000000,4.000000,4.000000,4.000000,4.000000,4.000000,4.000000,4.000000,4.000000,4.000000,4.000000,100.000000,,,,,,,,,,,,,,,,,,,,,,,,,,,,
1649274816.950543,1649274816.950142,94.000000,0.000000,4212.948730,4239.615234,4227.692383,4248.077148,4237.051270,4226.282227,4231.282227,4251.153809,4257.307617,4262.436035,4242.179688,4249.358887,4260.384766,4235.512695,3630.000000,1.000000,15.000000,,,,0.000000,4.000000,4.000000,4.000000,4.000000,4.000000,4.000000,4.000000,4.000000,4.000000,4.000000,4.000000,4.000000,4.000000,4.000000,100.000000,,,,,,,,,,,,,,,,,,,,,,,,,,,,
1649274816.958346,1649274816.957945,95.000000,0.000000,4222.820313,4244.615234,4232.820313,4247.307617,4245.128418,4231.666504,4233.205078,4259.102539,4267.051270,4266.153809,4245.256348,4250.641113,4254.487305,4245.512695,3625.000000,1.000000,15.000000,,,,0.000000,4.000000,4.000000,4.000000,4.000000,4.000000,4.000000,4.000000,4.000000,4.000000,4.000000,4.000000,4.000000,4.000000,4.000000,100.000000,,,,,,,,,,,,,,,,,,,,,,,,,,,,
1649274816.966148,1649274816.965848,96.000000,0.000000,4223.589844,4251.410156,4232.820313,4248.589844,4249.871582,4238.589844,4232.692383,4247.820313,4259.615234,4248.333496,4237.563965,4250.384766,4247.436035,4240.256348,3609.000000,1.000000,15.000000,,,,0.000000,4.000000,4.000000,4.000000,4.000000,4.000000,4.000000,4.000000,4.000000,4.000000,4.000000,4.000000,4.000000,4.000000,4.000000,100.000000,,,,,,,,,,,,,,,,,24.000000,0.000000,0.184700,0.612793,-0.373535,0.671448,0.965347,-0.269535,-0.031250,-32.449837,-103.480583,-1.046769
1649274816.973951,1649274816.973751,97.000000,0.000000,4217.563965,4246.282227,4230.769043,4248.077148,4241.922852,4239.871582,4232.692383,4245.512695,4258.077148,4241.410156,4226.922852,4248.077148,4238.717773,4228.077148,3499.000000,1.000000,15.000000,,,,0.000000,4.000000,4.000000,4.000000,4.000000,4.000000,4.000000,4.000000,4.000000,4.000000,4.000000,4.000000,4.000000,4.000000,4.000000,100.000000,,,,,,,,,,,,,,,,,,,,,,,,,,,,
1649274816.981754,1649274816.981554,98.000000,0.000000,4220.641113,4234.743652,4233.077148,4256.410156,4239.102539,4243.717773,4230.769043,4255.512695,4264.487305,4251.794922,4228.077148,4250.512695,4231.153809,4234.743652,3630.000000,1.000000,15.000000,,,,0.000000,4.000000,4.000000,4.000000,4.000000,4.000000,4.000000,4.000000,4.000000,4.000000,4.000000,4.000000,4.000000,4.000000,4.000000,100.000000,,,,,,,,,,,,,,,,,,,,,,,,,,,,
1649274816.989557,1649274816.989357,99.000000,0.000000,4226.538574,4236.153809,4233.205078,4264.230957,4245.384766,4250.641113,4228.589844,4252.051270,4255.641113,4248.333496,4235.256348,4251.410156,4235.512695,4240.512695,3625.000000,1.000000,15.000000,,,,0.000000,4.000000,4.000000,4.000000,4.000000,4.000000,4.000000,4.000000,4.000000,4.000000,4.000000,4.000000,4.000000,4.000000,4.000000,100.000000,,,,,,,,,,,,,,,,,,,,,,,,,,,,
1649274816.997360,1649274816.997060,100.000000,0.000000,4215.384766,4234.358887,4223.717773,4250.897461,4249.743652,4248.846191,4235.512695,4239.743652,4241.922852,4231.410156,4230.641113,4239.871582,4235.384766,4223.077148,3609.000000,1.000000,15.000000,,,,0.000000,4.000000,4.000000,4.000000,4.000000,4.000000,4.000000,4.000000,4.000000,4.000000,4.000000,4.000000,4.000000,4.000000,4.000000,100.000000,,,,,,,,,,,,,,,,,25.000000,0.000000,0.184335,0.612732,-0.373596,0.671570,0.976089,-0.297856,-0.036622,-32.300297,-104.377815,-1.943999
1649274817.005163,1649274817.004962,101.000000,0.000000,4197.563965,4229.358887,4213.717773,4237.051270,4247.179688,4244.230957,4246.282227,4244.102539,4243.974121,4240.641113,4227.179688,4230.641113,4229.102539,4210.769043,3499.000000,1.000000,15.000000,,,,0.000000,4.000000,4.000000,4.000000,4.000000,4.000000,4.000000,4.000000,4.000000,4.000000,4.000000,4.000000,4.000000,4.000000,4.000000,100.000000,,,,,,,,,,,,,,,,,,,,,,,,,,,,
1649274817.012966,1649274817.012765,102.000000,0.000000,4203.974121,4235.641113,4221.410156,4245.384766,4243.589844,4248.333496,4250.512695,4260.512695,4260.512695,4270.641113,4240.897461,4241.282227,4240.128418,4227.436035,3630.000000,1.000000,15.000000,,,,0.000000,4.000000,4.000000,4.000000,4.000000,4.000000,4.000000,4.000000,4.000000,4.000000,4.000000,4.000000,4.000000,4.000000,4.000000,100.000000,,,,,,,,,,,,,,,,,,,,,,,,,,,,
1649274817.020769,1649274817.020568,103.000000,0.000000,4222.692383,4240.256348,4237.563965,4253.333496,4251.538574,4248.333496,4245.641113,4266.282227,4273.333496,4275.769043,4253.333496,4253.846191,4256.025879,4245.512695,3625.000000,1.000000,15.000000,,,,0.000000,4.000000,4.000000,4.000000,4.000000,4.000000,4.000000,4.000000,4.000000,4.000000,4.000000,4.000000,4.000000,4.000000,4.000000,100.000000,,,,,,,,,,,,,,,,,,,,,,,,,,,,
1649274817.028572,1649274817.028271,104.000000,0.000000,4223.589844,4232.307617,4235.384766,4246.282227,4255.512695,4242.179688,4238.333496,4271.794922,4280.256348,4260.897461,4245.000000,4245.769043,4249.358887,4242.436035,3609.000000,1.000000,15.000000,,,,0.000000,4.000000,4.000000,4.000000,4.000000,4.000000,4.000000,4.000000,4.000000,4.000000,4.000000,4.000000,4.000000,4.000000,4.000000,100.000000,,,,,,,,,,,,,,,,,26.000000,0.000000,0.184300,0.612854,-0.373413,0.671570,0.974624,-0.284184,-0.030762,-32.300297,-104.377815,-2.243076
1649274817.036375,1649274817.036174,105.000000,0.000000,4211.410156,4228.333496,4220.897461,4242.179688,4245.128418,4243.589844,4236.153809,4280.128418,4282.563965,4260.384766,4228.589844,4232.051270,4232.307617,4227.051270,3499.000000,1.000000,15.000000,,,,0.000000,4.000000,4.000000,4.000000,4.000000,4.000000,4.000000,4.000000,4.000000,4.000000,4.000000,4.000000,4.000000,4.000000,4.000000,100.000000,,,,,,,,,,,,,,,,,,,,,,,,,,,,
1649274817.044178,1649274817.043977,106.000000,0.000000,4202.692383,4229.871582,4215.128418,4246.538574,4241.538574,4251.025879,4237.307617,4269.358887,4269.230957,4256.282227,4224.615234,4228.589844,4228.461426,4216.410156,3630.000000,1.000000,15.000000,,,,0.000000,4.000000,4.000000,4.000000,4.000000,4.000000,4.000000,4.000000,4.000000,4.000000,4.000000,4.000000,4.000000,4.000000,4.000000,100.000000,,,,,,,,,,,,,,,,,,,,,,,,,,,,
1649274817.051981,1649274817.051780,107.000000,0.000000,4201.025879,4224.487305,4220.128418,4242.948730,4250.769043,4252.692383,4236.922852,4241.282227,4249.871582,4234.102539,4232.436035,4234.358887,4232.948730,4221.410156,3625.000000,1.000000,15.000000,,,,0.000000,4.000000,4.000000,4.000000,4.000000,4.000000,4.000000,4.000000,4.000000,4.000000,4.000000,4.000000,4.000000,4.000000,4.000000,100.000000,,,,,,,,,,,,,,,,,,,,,,,,,,,,
1649274817.059784,1649274817.059483,108.000000,0.000000,4202.051270,4218.077148,4226.153809,4232.692383,4245.128418,4247.948730,4242.820313,4226.794922,4240.512695,4229.487305,4234.487305,4240.769043,4228.974121,4228.333496,3609.000000,1.000000,15.000000,,,,0.000000,4.000000,4.000000,4.000000,4.000000,4.000000,4.000000,4.000000,4.000000,4.000000,4.000000,4.000000,4.000000,4.000000,4.000000,100.000000,1.000000,100.000000,4.000000,4.000000,4.000000,4.000000,4.000000,4.000000,4.000000,4.000000,4.000000,4.000000,4.000000,4.000000,4.000000,4.000000,27.000000,0.000000,0.184364,0.612976,-0.373291,0.671509,0.966812,-0.291508,-0.029297,-32.898453,-104.527351,-2.542153
1649274817.067587,1649274817.067386,109.000000,0.000000,4208.846191,4216.282227,4228.205078,4237.436035,4227.692383,4248.717773,4256.666504,4239.102539,4248.077148,4245.384766,4229.358887,4242.820313,4226.025879,4228.077148,3499.000000,1.000000,15.000000,,,,0.000000,4.000000,4.000000,4.000000,4.000000,4.000000,4.000000,4.000000,4.000000,4.000000,4.000000,4.000000,4.000000,4.000000,4.000000,100.000000,,,,,,,,,,,,,,,,,,,,,,,,,,,,
1649274817.075389,1649274817.075189,110.000000,0.000000,4216.666504,4216.410156,4229.358887,4249.102539,4230.384766,4250.641113,4257.692383,4248.974121,4257.692383,4250.384766,4236.666504,4244.743652,4235.897461,4228.589844,3630.000000,1.000000,15.000000,,,,0.000000,4.000000,4.000000,4.000000,4.000000,4.000000,4.000000,4.000000,4.000000,4.000000,4.000000,4.000000,4.000000,4.000000,4.000000,100.000000,,,,,,,,,,,,,,,,,,,,,,,,,,,,
1649274817.083192,1649274817.082992,111.000000,0.000000,4216.794922,4220.641113,4232.307617,4248.589844,4246.794922,4247.948730,4251.922852,4249.743652,4258.717773,4250.641113,4246.410156,4247.948730,4245.897461,4233.974121,3625.000000,1.000000,15.000000,,,,0.000000,4.000000,4.000000,4.000000,4.000000,4.000000,4.000000,4.000000,4.000000,4.000000,4.000000,4.000000,4.000000,4.000000,4.000000,100.000000,,,,,,,,,,,,,,,,,,,,,,,,,,,,
1649274817.090995,1649274817.090695,112.000000,0.000000,4216.922852,4228.461426,4234.487305,4247.948730,4251.538574,4247.179688,4250.256348,4256.025879,4260.384766,4256.282227,4240.128418,4249.743652,4245.384766,4237.948730,3609.000000,1.000000,15.000000,,,,0.000000,4.000000,4.000000,4.000000,4.000000,4.000000,4.000000,4.000000,4.000000,4.000000,4.000000,4.000000,4.000000,4.000000,4.000000,100.000000,,,,,,,,,,,,,,,,,28.000000,0.000000,0.184304,0.613098,-0.373230,0.671448,0.974624,-0.287602,-0.036133,-33.496605,-105.873199,-0.448615
1649274817.098798,1649274817.098598,113.000000,0.000000,4224.743652,4233.461426,4234.487305,4253.333496,4248.333496,4249.358887,4240.384766,4261.410156,4262.563965,4252.948730,4231.794922,4249.230957,4242.179688,4237.307617,3499.000000,1.000000,15.000000,,,,0.000000,4.000000,4.000000,4.000000,4.000000,4.000000,4.000000,4.000000,4.000000,4.000000,4.000000,4.000000,4.000000,4.000000,4.000000,100.000000,,,,,,,,,,,,,,,,,,,,,,,,,,,,
1649274817.106601,1649274817.106401,114.000000,0.000000,4230.384766,4231.538574,4234.230957,4250.384766,4248.717773,4245.128418,4229.743652,4245.897461,4256.025879,4244.102539,4234.230957,4249.871582,4239.230957,4231.794922,3630.000000,1.000000,15.000000,,,,0.000000,4.000000,4.000000,4.000000,4.000000,4.000000,4.000000,4.000000,4.000000,4.000000,4.000000,4.000000,4.000000,4.000000,4.000000,100.000000,,,,,,,,,,,,,,,,,,,,,,,,,,,,
1649274817.114404,1649274817.114204,115.000000,0.000000,4228.846191,4230.000000,4235.128418,4249.487305,4245.384766,4231.410156,4229.102539,4225.384766,4239.743652,4244.743652,4239.487305,4250.384766,4233.333496,4228.461426,3625.000000,1.000000,15.000000,,,,0.000000,4.000000,4.000000,4.000000,4.000000,4.000000,4.000000,4.000000,4.000000,4.000000,4.000000,4.000000,4.000000,4.000000,4.000000,100.000000,,,,,,,,,,,,,,,,,,,,,,,,,,,,
1649274817.122207,1649274817.121907,116.000000,0.000000,4224.487305,4228.717773,4235.769043,4250.897461,4237.051270,4228.846191,4241.025879,4235.897461,4244.871582,4247.563965,4245.384766,4250.384766,4230.641113,4233.846191,3609.000000,1.000000,15.000000,,,,0.000000,4.000000,4.000000,4.000000,4.000000,4.000000,4.000000,4.000000,4.000000,4.000000,4.000000,4.000000,4.000000,4.000000,4.000000,100.000000,,,,,,,,,,,,,,,,,29.000000,0.000000,0.184279,0.613098,-0.373352,0.671387,0.969741,-0.281254,-0.044923,-33.347065,-104.228271,0.000000
1649274817.130010,1649274817.129810,117.000000,0.000000,4216.025879,4216.153809,4235.384766,4238.077148,4230.897461,4241.282227,4257.820313,4254.487305,4258.205078,4247.948730,4247.692383,4249.615234,4231.538574,4230.384766,3499.000000,1.000000,15.000000,,,,0.000000,4.000000,4.000000,4.000000,4.000000,4.000000,4.000000,4.000000,4.000000,4.000000,4.000000,4.000000,4.000000,4.000000,4.000000,100.000000,,,,,,,,,,,,,,,,,,,,,,,,,,,,
1649274817.137813,1649274817.137613,118.000000,0.000000,4212.692383,4205.000000,4233.333496,4234.487305,4232.307617,4247.307617,4260.256348,4251.410156,4252.820313,4249.102539,4246.025879,4248.077148,4230.641113,4225.897461,3630.000000,1.000000,15.000000,,,,0.000000,4.000000,4.000000,4.000000,4.000000,4.000000,4.000000,4.000000,4.000000,4.000000,4.000000,4.000000,4.000000,4.000000,4.000000,100.000000,,,,,,,,,,,,,,,,,,,,,,,,,,,,
1649274817.145616,1649274817.145416,119.000000,0.000000,4217.820313,4210.000000,4232.820313,4249.230957,4238.717773,4245.000000,4244.230957,4245.641113,4254.102539,4251.282227,4244.743652,4249.743652,4231.922852,4228.846191,3625.000000,1.000000,15.000000,,,,0.000000,4.000000,4.000000,4.000000,4.000000,4.000000,4.000000,4.000000,4.000000,4.000000,4.000000,4.000000,4.000000,4.000000,4.000000,100.000000,,,,,,,,,,,,,,,,,,,,,,,,,,,,
1649274817.153419,1649274817.153119,120.000000,0.000000,4213.205078,4216.922852,4231.153809,4251.922852,4242.436035,4245.512695,4231.538574,4250.512695,4261.410156,4248.846191,4236.282227,4248.461426,4229.487305,4222.051270,3609.000000,1.000000,15.000000,,,,0.000000,4.000000,4.000000,4.000000,4.000000,4.000000,4.000000,4.000000,4.000000,4.000000,4.000000,4.000000,4.000000,4.000000,4.000000,100.000000,,,,,,,,,,,,,,,,,30.000000,0.000000,0.184447,0.613159,-0.373169,0.671387,0.952651,-0.272953,-0.032227,-32.449837,-106.022736,-1.046769
1649274817.161222,1649274817.161022,121.000000,0.000000,4203.589844,4214.487305,4226.922852,4242.179688,4235.769043,4245.641113,4233.077148,4250.641113,4252.179688,4235.769043,4227.051270,4242.692383,4222.307617,4212.820313,3499.000000,1.000000,15.000000,,,,0.000000,4.000000,4.000000,4.000000,4.000000,4.000000,4.000000,4.000000,4.000000,4.000000,4.000000,4.000000,4.000000,4.000000,4.000000,100.000000,,,,,,,,,,,,,,,,,,,,,,,,,,,,
1649274817.169025,1649274817.168825,122.000000,0.000000,4210.256348,4215.641113,4228.717773,4245.641113,4230.256348,4239.615234,4240.897461,4244.615234,4240.384766,4228.461426,4226.922852,4244.230957,4216.922852,4216.025879,3630.000000,1.000000,15.000000,,,,0.000000,4.000000,4.000000,4.000000,4.000000,4.000000,4.000000,4.000000,4.000000,4.000000,4.000000,4.000000,4.000000,4.000000,4.000000,100.000000,,,,,,,,,,,,,,,,,,,,,,,,,,,,
1649274817.176828,1649274817.176628,123.000000,0.000000,4222.051270,4221.025879,4235.641113,4251.922852,4238.333496,4236.794922,4249.487305,4251.153809,4250.384766,4233.974121,4228.717773,4250.512695,4215.641113,4222.436035,3625.000000,1.000000,15.000000,,,,0.000000,4.000000,4.000000,4.000000,4.000000,4.000000,4.000000,4.000000,4.000000,4.000000,4.000000,4.000000,4.000000,4.000000,4.000000,100.000000,,,,,,,,,,,,,,,,,,,,,,,,,,,,
1649274817.184630,1649274817.184431,124.000000,0.000000,4218.717773,4221.666504,4234.615234,4249.102539,4231.666504,4235.769043,4247.563965,4251.922852,4251.666504,4232.820313,4230.641113,4248.333496,4222.307617,4223.589844,3609.000000,1.000000,15.000000,,,,0.000000,4.000000,4.000000,4.000000,4.000000,4.000000,4.000000,4.000000,4.000000,4.000000,4.000000,4.000000,4.000000,4.000000,4.000000,100.000000,,,,,,,,,,,,,,,,,31.000000,0.000000,0.184496,0.613159,-0.372925,0.671509,0.972183,-0.297856,-0.031739,-34.094757,-103.031967,-0.299077
1649274817.192433,1649274817.192234,125.000000,0.000000,4212.307617,4217.179688,4231.025879,4244.487305,4217.436035,4228.974121,4239.358887,4235.641113,4233.974121,4230.000000,4232.563965,4245.641113,4230.641113,4229.230957,3499.000000,1.000000,15.000000,,,,0.000000,4.000000,4.000000,4.000000,4.000000,4.000000,4.000000,4.000000,4.000000,4.000000,4.000000,4.000000,4.000000,4.000000,4.000000,100.000000,,,,,,,,,,,,,,,,,,,,,,,,,,,,
1649274817.200236,1649274817.200037,126.000000,0.000000,4214.487305,4208.974121,4234.615234,4236.922852,4230.769043,4233.333496,4243.974121,4233.205078,4236.153809,4240.769043,4236.282227,4250.384766,4230.512695,4233.846191,3630.000000,1.000000,15.000000,,,,0.000000,4.000000,4.000000,4.000000,4.000000,4.000000,4.000000,4.000000,4.000000,4.000000,4.000000,4.000000,4.000000,4.000000,4.000000,100.000000,,,,,,,,,,,,,,,,,,,,,,,,,,,,
1649274817.208039,1649274817.207939,127.000000,0.000000,4213.077148,4200.769043,4236.922852,4227.307617,4233.333496,4247.051270,4254.358887,4246.282227,4246.794922,4247.179688,4241.794922,4254.358887,4228.974121,4234.743652,52.000000,1.000000,15.000000,,,,0.000000,4.000000,4.000000,4.000000,4.000000,4.000000,4.000000,4.000000,4.000000,4.000000,4.000000,4.000000,4.000000,4.000000,4.000000,100.000000,,,,,,,,,,,,,,,,,,,,,,,,,,,,
1649274817.215842,1649274817.215842,0.000000,0.000000,4206.922852,4196.922852,4233.717773,4225.641113,4213.846191,4244.102539,4246.410156,4249.358887,4244.871582,4240.769043,4242.436035,4249.230957,4231.025879,4231.922852,3340.000000,1.000000,15.000000,,,,0.000000,4.000000,4.000000,4.000000,4.000000,4.000000,4.000000,4.000000,4.000000,4.000000,4.000000,4.000000,4.000000,4.000000,4.000000,100.000000,,,,,,,,,,,,,,,,,0.000000,0.000000,0.184723,0.613098,-0.372803,0.671570,0.964858,-0.278813,-0.031739,-32.150761,-104.975967,-2.542153
1649274817.223645,1649274817.223645,1.000000,0.000000,4202.436035,4198.846191,4231.410156,4236.025879,4228.205078,4231.025879,4233.846191,4242.948730,4245.384766,4231.666504,4230.128418,4237.563965,4222.948730,4222.436035,3552.000000,1.000000,15.000000,,,,0.000000,4.000000,4.000000,4.000000,4.000000,4.000000,4.000000,4.000000,4.000000,4.000000,4.000000,4.000000,4.000000,4.000000,4.000000,100.000000,,,,,,,,,,,,,,,,,,,,,,,,,,,,
1649274817.231448,1649274817.231448,2.000000,0.000000,4205.000000,4209.743652,4230.641113,4246.410156,4256.153809,4236.153809,4240.256348,4235.641113,4245.512695,4222.692383,4217.948730,4227.307617,4212.436035,4211.153809,3557.000000,1.000000,15.000000,,,,0.000000,4.000000,4.000000,4.000000,4.000000,4.000000,4.000000,4.000000,4.000000,4.000000,4.000000,4.000000,4.000000,4.000000,4.000000,100.000000,,,,,,,,,,,,,,,,,,,,,,,,,,,,
1649274817.239251,1649274817.239151,3.000000,0.000000,4210.641113,4224.743652,4231.666504,4247.820313,4243.717773,4247.307617,4247.948730,4224.615234,4232.051270,4220.128418,4219.615234,4224.230957,4216.538574,4211.922852,3632.000000,1.000000,15.000000,,,,0.000000,4.000000,4.000000,4.000000,4.000000,4.000000,4.000000,4.000000,4.000000,4.000000,4.000000,4.000000,4.000000,4.000000,4.000000,100.000000,,,,,,,,,,,,,,,,,,,,,,,,,,,,
1649274817.247054,1649274817.247054,4.000000,0.000000,4218.974121,4230.512695,4236.922852,4247.436035,4238.717773,4246.153809,4245.384766,4232.820313,4236.922852,4231.282227,4236.025879,4236.666504,4229.615234,4232.563965,3630.000000,1.000000,15.000000,,,,0.000000,4.000000,4.000000,4.000000,4.000000,4.000000,4.000000,4.000000,4.000000,4.000000,4.000000,4.000000,4.000000,4.000000,4.000000,100.000000,,,,,,,,,,,,,,,,,1.000000,0.000000,0.184506,0.613037,-0.372681,0.671753,0.967788,-0.280278,-0.020508,-31.552605,-103.630119,-0.897231
1649274817.254857,1649274817.254857,5.000000,0.000000,4229.871582,4231.025879,4245.641113,4250.128418,4253.333496,4245.897461,4248.717773,4256.794922,4266.666504,4251.794922,4258.589844,4255.384766,4245.769043,4253.717773,3612.000000,1.000000,15.000000,,,,0.000000,4.000000,4.000000,4.000000,4.000000,4.000000,4.000000,4.000000,4.000000,4.000000,4.000000,4.000000,4.000000,4.000000,4.000000,100.000000,,,,,,,,,,,,,,,,,,,,,,,,,,,,
1649274817.262660,1649274817.262760,6.000000,0.000000,4232.692383,4233.461426,4246.794922,4251.025879,4232.820313,4239.743652,4244.615234,4255.256348,4267.948730,4268.461426,4268.461426,4257.051270,4256.666504,4251.282227,3628.000000,1.000000,15.000000,,,,0.000000,4.000000,4.000000,4.000000,4.000000,4.000000,4.000000,4.000000,4.000000,4.000000,4.000000,4.000000,4.000000,4.000000,4.000000,100.000000,,,,,,,,,,,,,,,,,,,,,,,,,,,,
1649274817.270463,1649274817.270563,7.000000,0.000000,4227.820313,4226.410156,4240.128418,4252.692383,4211.153809,4228.077148,4238.717773,4246.153809,4250.641113,4265.512695,4262.692383,4244.743652,4250.256348,4239.230957,3615.000000,1.000000,15.000000,,,,0.000000,4.000000,4.000000,4.000000,4.000000,4.000000,4.000000,4.000000,4.000000,4.000000,4.000000,4.000000,4.000000,4.000000,4.000000,100.000000,,,,,,,,,,,,,,,,,,,,,,,,,,,,
1649274817.278266,1649274817.278466,8.000000,0.000000,4222.051270,4210.000000,4235.384766,4248.077148,4230.000000,4233.846191,4253.333496,4252.307617,4250.256348,4247.051270,4251.282227,4235.256348,4235.512695,4232.948730,3516.000000,1.000000,15.000000,,,,0.000000,4.000000,4.000000,4.000000,4.000000,4.000000,4.000000,4.000000,4.000000,4.000000,4.000000,4.000000,4.000000,4.000000,4.000000,100.000000,,,,,,,,,,,,,,,,,2.000000,0.000000,0.184214,0.612976,-0.372375,0.672058,0.957046,-0.290044,-0.022461,-32.449837,-103.779663,-0.598154
1649274817.286069,1649274817.286369,9.000000,0.000000,4215.769043,4211.153809,4231.153809,4235.384766,4241.922852,4243.077148,4257.307617,4247.179688,4247.563965,4245.256348,4246.282227,4230.384766,4236.794922,4232.948730,3704.000000,1.000000,15.000000,,,,0.000000,4.000000,4.000000,4.000000,4.000000,4.000000,4.000000,4.000000,4.000000,4.000000,4.000000,4.000000,4.000000,4.000000,4.000000,100.000000,,,,,,,,,,,,,,,,,,,,,,,,,,,,
1649274817.293871,1649274817.294172,10.000000,0.000000,4215.256348,4225.512695,4230.384766,4232.692383,4230.256348,4246.794922,4246.922852,4245.897461,4251.410156,4259.358887,4258.333496,4238.974121,4251.538574,4241.025879,3640.000000,1.000000,15.000000,,,,0.000000,4.000000,4.000000,4.000000,4.000000,4.000000,4.000000,4.000000,4.000000,4.000000,4.000000,4.000000,4.000000,4.000000,4.000000,100.000000,,,,,,,,,,,,,,,,,,,,,,,,,,,,
1649274817.301674,1649274817.301975,11.000000,0.000000,4226.794922,4224.230957,4244.230957,4235.897461,4233.205078,4261.666504,4260.641113,4264.743652,4272.563965,4257.563965,4268.589844,4259.743652,4255.000000,4253.461426,3630.000000,1.000000,15.000000,,,,0.000000,4.000000,4.000000,4.000000,4.000000,4.000000,4.000000,4.000000,4.000000,4.000000,4.000000,4.000000,4.000000,4.000000,4.000000,100.000000,,,,,,,,,,,,,,,,,,,,,,,,,,,,
1649274817.309477,1649274817.309978,12.000000,0.000000,4236.153809,4212.563965,4253.846191,4231.025879,4237.948730,4265.641113,4267.563965,4261.666504,4267.179688,4247.307617,4256.922852,4264.102539,4244.358887,4253.333496,3611.000000,1.000000,15.000000,,,,0.000000,4.000000,4.000000,4.000000,4.000000,4.000000,4.000000,4.000000,4.000000,4.000000,4.000000,4.000000,4.000000,4.000000,4.000000,100.000000,,,,,,,,,,,,,,,,,3.000000,0.000000,0.184023,0.612854,-0.372009,0.672424,0.979019,-0.280766,-0.035157,-32.300297,-105.424583,-0.448615
1649274817.317280,1649274817.317781,13.000000,0.000000,4227.563965,4215.512695,4239.615234,4231.410156,4229.358887,4250.384766,4251.794922,4241.282227,4240.641113,4242.563965,4243.333496,4247.948730,4232.307617,4240.128418,3507.000000,1.000000,15.000000,,,,0.000000,4.000000,4.000000,4.000000,4.000000,4.000000,4.000000,4.000000,4.000000,4.000000,4.000000,4.000000,4.000000,4.000000,4.000000,100.000000,,,,,,,,,,,,,,,,,,,,,,,,,,,,
1649274817.325083,1649274817.325584,14.000000,0.000000,4219.102539,4229.615234,4229.615234,4244.230957,4237.692383,4253.717773,4256.282227,4245.128418,4241.666504,4235.256348,4247.436035,4235.512695,4223.205078,4229.743652,3640.000000,1.000000,15.000000,,,,0.000000,4.000000,4.000000,4.000000,4.000000,4.000000,4.000000,4.000000,4.000000,4.000000,4.000000,4.000000,4.000000,4.000000,4.000000,100.000000,,,,,,,,,,,,,,,,,,,,,,,,,,,,
1649274817.332886,1649274817.333487,15.000000,0.000000,4225.256348,4234.615234,4235.384766,4247.179688,4252.051270,4264.743652,4263.205078,4244.615234,4249.615234,4229.871582,4247.563965,4235.128418,4217.307617,4229.102539,3630.000000,1.000000,15.000000,,,,0.000000,4.000000,4.000000,4.000000,4.000000,4.000000,4.000000,4.000000,4.000000,4.000000,4.000000,4.000000,4.000000,4.000000,4.000000,100.000000,,,,,,,,,,,,,,,,,,,,,,,,,,,,
1649274817.340689,1649274817.341390,16.000000,0.000000,4230.000000,4230.512695,4233.974121,4244.358887,4243.077148,4253.461426,4246.922852,4228.333496,4236.794922,4233.205078,4233.461426,4233.589844,4213.974121,4228.717773,0.000000,1.000000,15.000000,,,,0.000000,4.000000,4.000000,4.000000,4.000000,4.000000,4.000000,4.000000,4.000000,4.000000,4.000000,4.000000,4.000000,4.000000,4.000000,100.000000,,,,,,,,,,,,,,,,,4.000000,0.000000,0.184194,0.612854,-0.371704,0.672546,0.975601,-0.288090,-0.030274,-31.702145,-103.480583,-0.598154
1649274817.348492,1649274817.349193,17.000000,0.000000,4223.461426,4224.871582,4230.384766,4247.179688,4231.538574,4241.922852,4241.410156,4235.000000,4229.871582,4229.358887,4225.512695,4230.256348,4209.230957,4228.077148,0.000000,1.000000,15.000000,,,,0.000000,4.000000,4.000000,4.000000,4.000000,4.000000,4.000000,4.000000,4.000000,4.000000,4.000000,4.000000,4.000000,4.000000,4.000000,100.000000,,,,,,,,,,,,,,,,,,,,,,,,,,,,
1649274817.356295,1649274817.356996,18.000000,0.000000,4214.615234,4218.974121,4231.794922,4240.512695,4235.128418,4239.871582,4247.563965,4249.487305,4236.794922,4222.179688,4230.512695,4236.282227,4208.846191,4230.000000,0.000000,1.000000,15.000000,,,,0.000000,4.000000,4.000000,4.000000,4.000000,4.000000,4.000000,4.000000,4.000000,4.000000,4.000000,4.000000,4.000000,4.000000,4.000000,100.000000,,,,,,,,,,,,,,,,,,,,,,,,,,,,
1649274817.364098,1649274817.364899,19.000000,0.000000,4215.000000,4213.205078,4231.538574,4229.230957,4234.615234,4233.333496,4244.743652,4252.051270,4247.051270,4226.025879,4238.974121,4244.615234,4214.487305,4227.307617,0.000000,1.000000,15.000000,,,,0.000000,4.000000,4.000000,4.000000,4.000000,4.000000,4.000000,4.000000,4.000000,4.000000,4.000000,4.000000,4.000000,4.000000,4.000000,100.000000,,,,,,,,,,,,,,,,,,,,,,,,,,,,
1649274817.371901,1649274817.372802,20.000000,0.000000,4225.128418,4214.230957,4232.051270,4235.000000,4230.256348,4235.512695,4246.410156,4259.230957,4255.769043,4234.358887,4246.410156,4247.051270,4218.974121,4227.820313,0.000000,1.000000,15.000000,,,,0.000000,4.000000,4.000000,4.000000,4.000000,4.000000,4.000000,4.000000,4.000000,4.000000,4.000000,4.000000,4.000000,4.000000,4.000000,100.000000,,,,,,,,,,,,,,,,,5.000000,0.000000,0.184198,0.612793,-0.371582,0.672668,0.970230,-0.278813,-0.036622,-31.851683,-103.929199,0.149538
1649274817.379704,1649274817.380606,21.000000,0.000000,4235.384766,4219.230957,4237.051270,4236.153809,4231.410156,4247.051270,4249.358887,4258.333496,4251.025879,4240.384766,4249.102539,4254.487305,4220.641113,4240.000000,0.000000,1.000000,15.000000,,,,0.000000,4.000000,4.000000,4.000000,4.000000,4.000000,4.000000,4.000000,4.000000,4.000000,4.000000,4.000000,4.000000,4.000000,4.000000,100.000000,,,,,,,,,,,,,,,,,,,,,,,,,,,,
1649274817.387507,1649274817.388409,22.000000,0.000000,4229.230957,4209.871582,4237.436035,4220.769043,4227.179688,4246.922852,4247.179688,4246.025879,4243.461426,4240.256348,4247.820313,4261.410156,4217.179688,4240.512695,0.000000,1.000000,15.000000,,,,0.000000,4.000000,4.000000,4.000000,4.000000,4.000000,4.000000,4.000000,4.000000,4.000000,4.000000,4.000000,4.000000,4.000000,4.000000,100.000000,,,,,,,,,,,,,,,,,,,,,,,,,,,,
1649274817.395310,1649274817.396312,23.000000,0.000000,4214.358887,4196.153809,4233.205078,4221.794922,4221.922852,4243.461426,4256.666504,4250.641113,4250.256348,4230.256348,4245.384766,4252.436035,4207.820313,4230.384766,0.000000,1.000000,15.000000,,,,0.000000,4.000000,4.000000,4.000000,4.000000,4.000000,4.000000,4.000000,4.000000,4.000000,4.000000,4.000000,4.000000,4.000000,4.000000,100.000000,,,,,,,,,,,,,,,,,,,,,,,,,,,,
1649274817.403112,1649274817.404214,24.000000,0.000000,4213.974121,4197.563965,4232.051270,4233.974121,4220.897461,4243.589844,4255.641113,4248.846191,4248.077148,4221.922852,4239.871582,4245.384766,4202.436035,4230.512695,0.000000,1.000000,15.000000,,,,0.000000,4.000000,4.000000,4.000000,4.000000,4.000000,4.000000,4.000000,4.000000,4.000000,4.000000,4.000000,4.000000,4.000000,4.000000,100.000000,,,,,,,,,,,,,,,,,6.000000,0.000000,0.184241,0.612854,-0.371460,0.672668,0.963394,-0.286137,-0.030762,-34.244297,-103.929199,-0.897231
1649274817.410915,1649274817.412017,25.000000,0.000000,4216.922852,4205.128418,4230.769043,4233.205078,4224.358887,4235.256348,4235.000000,4219.487305,4231.025879,4226.153809,4230.897461,4246.153809,4203.717773,4231.153809,0.000000,1.000000,15.000000,,,,0.000000,4.000000,4.000000,4.000000,4.000000,4.000000,4.000000,4.000000,4.000000,4.000000,4.000000,4.000000,4.000000,4.000000,4.000000,100.000000,,,,,,,,,,,,,,,,,,,,,,,,,,,,
1649274817.418718,1649274817.419820,26.000000,0.000000,4216.153809,4202.436035,4230.000000,4226.794922,4230.128418,4231.538574,4233.205078,4209.871582,4228.205078,4233.717773,4234.102539,4246.538574,4210.512695,4228.717773,0.000000,1.000000,15.000000,,,,0.000000,4.000000,4.000000,4.000000,4.000000,4.000000,4.000000,4.000000,4.000000,4.000000,4.000000,4.000000,4.000000,4.000000,4.000000,100.000000,,,,,,,,,,,,,,,,,,,,,,,,,,,,
1649274817.426521,1649274817.427723,27.000000,0.000000,4225.897461,4205.897461,4237.820313,4229.358887,4233.333496,4239.358887,4250.256348,4226.410156,4237.692383,4233.589844,4255.512695,4255.897461,4225.897461,4240.641113,0.000000,1.000000,15.000000,,,,0.000000,4.000000,4.000000,4.000000,4.000000,4.000000,4.000000,4.000000,4.000000,4.000000,4.000000,4.000000,4.000000,4.000000,4.000000,100.000000,,,,,,,,,,,,,,,,,,,,,,,,,,,,
1649274817.434324,1649274817.435626,28.000000,0.000000,4236.922852,4226.538574,4248.974121,4239.358887,4238.205078,4238.974121,4247.692383,4231.922852,4236.282227,4230.897461,4267.692383,4268.589844,4233.589844,4254.487305,0.000000,1.000000,15.000000,,,,0.000000,4.000000,4.000000,4.000000,4.000000,4.000000,4.000000,4.000000,4.000000,4.000000,4.000000,4.000000,4.000000,4.000000,4.000000,100.000000,,,,,,,,,,,,,,,,,7.000000,0.000000,0.184180,0.612976,-0.371399,0.672607,0.968765,-0.283207,-0.035157,-31.851683,-103.331047,-0.448615
1649274817.442127,1649274817.443429,29.000000,0.000000,4236.666504,4236.025879,4248.077148,4250.384766,4238.717773,4230.512695,4232.692383,4235.897461,4232.692383,4234.230957,4257.820313,4265.769043,4221.794922,4251.538574,0.000000,1.000000,15.000000,,,,0.000000,4.000000,4.000000,4.000000,4.000000,4.000000,4.000000,4.000000,4.000000,4.000000,4.000000,4.000000,4.000000,4.000000,4.000000,100.000000,,,,,,,,,,,,,,,,,,,,,,,,,,,,
1649274817.449930,1649274817.451232,30.000000,0.000000,4230.512695,4226.922852,4237.948730,4248.205078,4220.256348,4229.871582,4229.487305,4243.205078,4236.794922,4235.769043,4245.128418,4253.589844,4213.589844,4240.384766,0.000000,1.000000,15.000000,,,,0.000000,4.000000,4.000000,4.000000,4.000000,4.000000,4.000000,4.000000,4.000000,4.000000,4.000000,4.000000,4.000000,4.000000,4.000000,100.000000,,,,,,,,,,,,,,,,,,,,,,,,,,,,
1649274817.457733,1649274817.459135,31.000000,0.000000,4220.641113,4216.282227,4225.512695,4232.692383,4216.282227,4232.948730,4231.025879,4238.333496,4237.179688,4232.692383,4240.128418,4242.307617,4215.256348,4225.256348,0.000000,1.000000,15.000000,,,,0.000000,4.000000,4.000000,4.000000,4.000000,4.000000,4.000000,4.000000,4.000000,4.000000,4.000000,4.000000,4.000000,4.000000,4.000000,100.000000,,,,,,,,,,,,,,,,,,,,,,,,,,,,
1649274817.465536,1649274817.467038,32.000000,0.000000,4211.666504,4215.000000,4218.205078,4234.102539,4244.871582,4228.461426,4225.897461,4226.794922,4232.563965,4236.025879,4245.641113,4240.000000,4217.692383,4221.794922,0.000000,1.000000,15.000000,,,,0.000000,4.000000,4.000000,4.000000,4.000000,4.000000,4.000000,4.000000,4.000000,4.000000,4.000000,4.000000,4.000000,4.000000,4.000000,100.000000,,,,,,,,,,,,,,,,,8.000000,0.000000,0.184466,0.613098,-0.371277,0.672485,0.967788,-0.279301,-0.030762,-32.748913,-104.676888,-1.644923
1649274817.473339,1649274817.474841,33.000000,0.000000,4220.897461,4221.538574,4223.974121,4249.871582,4251.153809,4228.974121,4225.000000,4226.025879,4234.102539,4245.000000,4260.897461,4253.974121,4229.487305,4238.846191,0.000000,1.000000,15.000000,,,,0.000000,4.000000,4.000000,4.000000,4.000000,4.000000,4.000000,4.000000,4.000000,4.000000,4.000000,4.000000,4.000000,4.000000,4.000000,100.000000,,,,,,,,,,,,,,,,,,,,,,,,,,,,
1649274817.481142,1649274817.482644,34.000000,0.000000,4235.769043,4233.077148,4233.205078,4253.589844,4236.666504,4241.282227,4239.487305,4242.692383,4251.282227,4258.974121,4271.025879,4267.051270,4250.256348,4252.436035,0.000000,1.000000,15.000000,,,,0.000000,4.000000,4.000000,4.000000,4.000000,4.000000,4.000000,4.000000,4.000000,4.000000,4.000000,4.000000,4.000000,4.000000,4.000000,100.000000,,,,,,,,,,,,,,,,,,,,,,,,,,,,
1649274817.488945,1649274817.490547,35.000000,0.000000,4232.563965,4236.538574,4231.282227,4241.538574,4241.666504,4252.948730,4252.051270,4259.743652,4269.102539,4268.077148,4266.794922,4264.743652,4251.410156,4250.000000,0.000000,1.000000,15.000000,,,,0.000000,4.000000,4.000000,4.000000,4.000000,4.000000,4.000000,4.000000,4.000000,4.000000,4.000000,4.000000,4.000000,4.000000,4.000000,100.000000,,,,,,,,,,,,,,,,,,,,,,,,,,,,
1649274817.496748,1649274817.498449,36.000000,0.000000,4223.461426,4226.153809,4227.563965,4236.025879,4242.051270,4250.128418,4247.563965,4255.384766,4262.179688,4258.077148,4265.000000,4260.256348,4236.410156,4245.769043,0.000000,1.000000,15.000000,,,,0.000000,4.000000,4.000000,4.000000,4.000000,4.000000,4.000000,4.000000,4.000000,4.000000,4.000000,4.000000,4.000000,4.000000,4.000000,100.000000,,,,,,,,,,,,,,,,,9.000000,0.000000,0.184589,0.613098,-0.371216,0.672485,0.963394,-0.283207,-0.032715,-32.449837,-103.480583,-2.093538
1649274817.504551,1649274817.506252,37.000000,0.000000,4230.897461,4226.153809,4233.461426,4246.794922,4232.436035,4236.153809,4241.666504,4245.641113,4249.743652,4255.000000,4272.051270,4264.871582,4239.871582,4255.256348,0.000000,1.000000,15.000000,,,,0.000000,4.000000,4.000000,4.000000,4.000000,4.000000,4.000000,4.000000,4.000000,4.000000,4.000000,4.000000,4.000000,4.000000,4.000000,100.000000,,,,,,,,,,,,,,,,,,,,,,,,,,,,
1649274817.512353,1649274817.514155,38.000000,0.000000,4241.666504,4229.487305,4238.589844,4247.820313,4233.974121,4232.948730,4247.563965,4251.410156,4253.461426,4261.025879,4266.666504,4269.615234,4246.410156,4265.769043,0.000000,1.000000,15.000000,,,,0.000000,4.000000,4.000000,4.000000,4.000000,4.000000,4.000000,4.000000,4.000000,4.000000,4.000000,4.000000,4.000000,4.000000,4.000000,100.000000,,,,,,,,,,,,,,,,,,,,,,,,,,,,
1649274817.520156,1649274817.521958,39.000000,0.000000,4232.436035,4215.897461,4234.615234,4234.230957,4233.717773,4237.307617,4247.563965,4250.641113,4255.641113,4244.358887,4250.897461,4263.974121,4232.051270,4253.589844,0.000000,1.000000,15.000000,,,,0.000000,4.000000,4.000000,4.000000,4.000000,4.000000,4.000000,4.000000,4.000000,4.000000,4.000000,4.000000,4.000000,4.000000,4.000000,100.000000,,,,,,,,,,,,,,,,,,,,,,,,,,,,
1649274817.527959,1649274817.529861,40.000000,0.000000,4217.563965,4212.820313,4225.000000,4228.974121,4230.641113,4228.205078,4234.358887,4237.051270,4244.615234,4227.563965,4244.358887,4243.846191,4217.948730,4229.358887,0.000000,1.000000,15.000000,,,,0.000000,4.000000,4.000000,4.000000,4.000000,4.000000,4.000000,4.000000,4.000000,4.000000,4.000000,4.000000,4.000000,4.000000,4.000000,100.000000,,,,,,,,,,,,,,,,,10.000000,0.000000,0.184915,0.613281,-0.370972,0.672363,0.971695,-0.273442,-0.036133,-32.898453,-104.975967,-1.794461
1649274817.535762,1649274817.537664,41.000000,0.000000,4215.512695,4224.358887,4217.436035,4234.743652,4240.512695,4220.128418,4228.077148,4230.000000,4233.846191,4230.512695,4241.282227,4228.205078,4213.077148,4223.461426,0.000000,1.000000,15.000000,,,,0.000000,4.000000,4.000000,4.000000,4.000000,4.000000,4.000000,4.000000,4.000000,4.000000,4.000000,4.000000,4.000000,4.000000,4.000000,100.000000,,,,,,,,,,,,,,,,,,,,,,,,,,,,
1649274817.543565,1649274817.545567,42.000000,0.000000,4218.461426,4223.974121,4218.974121,4233.205078,4246.922852,4234.615234,4231.666504,4226.025879,4225.641113,4227.051270,4241.794922,4239.358887,4210.769043,4232.051270,0.000000,1.000000,15.000000,,,,0.000000,4.000000,4.000000,4.000000,4.000000,4.000000,4.000000,4.000000,4.000000,4.000000,4.000000,4.000000,4.000000,4.000000,4.000000,100.000000,,,,,,,,,,,,,,,,,,,,,,,,,,,,
1649274817.551368,1649274817.553370,43.000000,0.000000,4215.641113,4221.794922,4218.077148,4232.179688,4249.230957,4252.692383,4234.487305,4228.333496,4227.436035,4227.692383,4252.820313,4249.487305,4224.102539,4233.717773,0.000000,1.000000,15.000000,,,,0.000000,4.000000,4.000000,4.000000,4.000000,4.000000,4.000000,4.000000,4.000000,4.000000,4.000000,4.000000,4.000000,4.000000,4.000000,100.000000,,,,,,,,,,,,,,,,,,,,,,,,,,,,
1649274817.559171,1649274817.561273,44.000000,0.000000,4204.358887,4223.333496,4205.000000,4235.256348,4249.487305,4252.179688,4233.461426,4234.102539,4234.358887,4231.538574,4252.563965,4234.743652,4235.769043,4231.282227,0.000000,1.000000,15.000000,,,,0.000000,4.000000,4.000000,4.000000,4.000000,4.000000,4.000000,4.000000,4.000000,4.000000,4.000000,4.000000,4.000000,4.000000,4.000000,100.000000,1.000000,100.000000,4.000000,4.000000,4.000000,4.000000,4.000000,4.000000,4.000000,4.000000,4.000000,4.000000,4.000000,4.000000,4.000000,4.000000,11.000000,0.000000,0.184675,0.613464,-0.370789,0.672363,0.982437,-0.273442,-0.025391,-30.356298,-104.676888,0.897231
1649274817.566974,1649274817.569076,45.000000,0.000000,4196.282227,4204.230957,4198.461426,4228.846191,4237.563965,4244.615234,4231.794922,4227.820313,4229.615234,4221.410156,4242.563965,4226.922852,4227.179688,4232.692383,0.000000,1.000000,15.000000,,,,0.000000,4.000000,4.000000,4.000000,4.000000,4.000000,4.000000,4.000000,4.000000,4.000000,4.000000,4.000000,4.000000,4.000000,4.000000,100.000000,,,,,,,,,,,,,,,,,,,,,,,,,,,,
1649274817.574777,1649274817.576978,46.000000,0.000000,4209.102539,4190.512695,4215.256348,4223.461426,4224.487305,4238.461426,4233.974121,4231.153809,4237.307617,4236.153809,4263.717773,4249.743652,4243.333496,4246.794922,0.000000,1.000000,15.000000,,,,0.000000,4.000000,4.000000,4.000000,4.000000,4.000000,4.000000,4.000000,4.000000,4.000000,4.000000,4.000000,4.000000,4.000000,4.000000,100.000000,,,,,,,,,,,,,,,,,,,,,,,,,,,,
1649274817.582580,1649274817.584781,47.000000,0.000000,4235.128418,4208.846191,4236.922852,4231.153809,4229.487305,4241.410156,4243.461426,4256.666504,4266.025879,4271.794922,4297.820313,4278.333496,4280.384766,4274.358887,0.000000,1.000000,15.000000,,,,0.000000,4.000000,4.000000,4.000000,4.000000,4.000000,4.000000,4.000000,4.000000,4.000000,4.000000,4.000000,4.000000,4.000000,4.000000,100.000000,,,,,,,,,,,,,,,,,,,,,,,,,,,,
1649274817.590383,1649274817.592684,48.000000,0.000000,4244.230957,4224.487305,4240.000000,4238.461426,4240.641113,4249.487305,4250.256348,4264.102539,4274.871582,4271.410156,4293.717773,4280.512695,4278.205078,4284.871582,0.000000,1.000000,15.000000,,,,0.000000,4.000000,4.000000,4.000000,4.000000,4.000000,4.000000,4.000000,4.000000,4.000000,4.000000,4.000000,4.000000,4.000000,4.000000,100.000000,,,,,,,,,,,,,,,,,12.000000,0.000000,0.184146,0.613586,-0.370850,0.672363,0.966323,-0.278325,-0.031739,-33.347065,-104.975967,-1.046769
1649274817.598186,1649274817.600487,49.000000,0.000000,4228.589844,4213.846191,4224.230957,4233.589844,4237.307617,4243.846191,4249.102539,4248.974121,4259.358887,4248.333496,4266.282227,4262.307617,4248.717773,4266.666504,0.000000,1.000000,15.000000,,,,0.000000,4.000000,4.000000,4.000000,4.000000,4.000000,4.000000,4.000000,4.000000,4.000000,4.000000,4.000000,4.000000,4.000000,4.000000,100.000000,,,,,,,,,,,,,,,,,,,,,,,,,,,,
1649274817.605989,1649274817.608390,50.000000,0.000000,4217.820313,4205.256348,4215.000000,4226.410156,4228.333496,4238.974121,4241.282227,4245.769043,4248.717773,4242.436035,4258.974121,4252.692383,4242.948730,4255.384766,0.000000,1.000000,15.000000,,,,0.000000,4.000000,4.000000,4.000000,4.000000,4.000000,4.000000,4.000000,4.000000,4.000000,4.000000,4.000000,4.000000,4.000000,4.000000,100.000000,,,,,,,,,,,,,,,,,,,,,,,,,,,,
1649274817.613792,1649274817.616193,51.000000,0.000000,4228.077148,4221.666504,4226.666504,4237.692383,4227.820313,4246.538574,4231.794922,4248.589844,4246.153809,4254.102539,4272.307617,4263.077148,4256.410156,4269.615234,0.000000,1.000000,15.000000,,,,0.000000,4.000000,4.000000,4.000000,4.000000,4.000000,4.000000,4.000000,4.000000,4.000000,4.000000,4.000000,4.000000,4.000000,4.000000,100.000000,,,,,,,,,,,,,,,,,,,,,,,,,,,,
1649274817.621594,1649274817.624196,52.000000,0.000000,4239.230957,4235.769043,4239.487305,4249.871582,4239.102539,4248.717773,4236.410156,4248.461426,4250.128418,4264.102539,4280.000000,4275.641113,4267.563965,4284.487305,0.000000,1.000000,15.000000,,,,0.000000,4.000000,4.000000,4.000000,4.000000,4.000000,4.000000,4.000000,4.000000,4.000000,4.000000,4.000000,4.000000,4.000000,4.000000,100.000000,,,,,,,,,,,,,,,,,13.000000,0.000000,0.184143,0.613647,-0.370972,0.672241,0.952163,-0.276371,-0.024903,-33.496605,-103.929199,-1.196307
1649274817.629397,1649274817.631999,53.000000,0.000000,4236.025879,4226.922852,4236.282227,4237.051270,4249.743652,4247.307617,4250.384766,4256.025879,4262.436035,4261.025879,4282.436035,4272.692383,4275.128418,4276.922852,0.000000,1.000000,15.000000,,,,0.000000,4.000000,4.000000,4.000000,4.000000,4.000000,4.000000,4.000000,4.000000,4.000000,4.000000,4.000000,4.000000,4.000000,4.000000,100.000000,,,,,,,,,,,,,,,,,,,,,,,,,,,,
1649274817.637200,1649274817.639803,54.000000,0.000000,4231.025879,4221.538574,4230.641113,4231.153809,4251.922852,4248.846191,4249.230957,4257.820313,4269.358887,4263.333496,4291.922852,4264.743652,4277.692383,4266.538574,0.000000,1.000000,15.000000,,,,0.000000,4.000000,4.000000,4.000000,4.000000,4.000000,4.000000,4.000000,4.000000,4.000000,4.000000,4.000000,4.000000,4.000000,4.000000,100.000000,,,,,,,,,,,,,,,,,,,,,,,,,,,,
1649274817.645003,1649274817.647705,55.000000,0.000000,4230.769043,4224.102539,4230.769043,4242.179688,4244.358887,4244.743652,4242.179688,4246.922852,4259.615234,4272.051270,4291.538574,4263.205078,4270.641113,4268.589844,0.000000,1.000000,15.000000,,,,0.000000,4.000000,4.000000,4.000000,4.000000,4.000000,4.000000,4.000000,4.000000,4.000000,4.000000,4.000000,4.000000,4.000000,4.000000,100.000000,,,,,,,,,,,,,,,,,,,,,,,,,,,,
1649274817.652806,1649274817.655508,56.000000,0.000000,4232.051270,4218.205078,4231.666504,4238.461426,4230.769043,4240.384766,4254.358887,4252.563965,4255.128418,4266.153809,4277.436035,4263.974121,4262.307617,4266.794922,0.000000,1.000000,15.000000,,,,0.000000,4.000000,4.000000,4.000000,4.000000,4.000000,4.000000,4.000000,4.000000,4.000000,4.000000,4.000000,4.000000,4.000000,4.000000,100.000000,,,,,,,,,,,,,,,,,14.000000,0.000000,0.183920,0.613647,-0.370972,0.672302,0.976089,-0.276860,-0.031739,-33.347065,-103.480583,-0.598154
1649274817.660609,1649274817.663311,57.000000,0.000000,4228.717773,4210.128418,4232.051270,4226.282227,4228.333496,4244.743652,4270.000000,4268.589844,4263.333496,4257.051270,4273.589844,4264.487305,4258.461426,4258.077148,0.000000,1.000000,15.000000,,,,0.000000,4.000000,4.000000,4.000000,4.000000,4.000000,4.000000,4.000000,4.000000,4.000000,4.000000,4.000000,4.000000,4.000000,4.000000,100.000000,,,,,,,,,,,,,,,,,,,,,,,,,,,,
1649274817.668412,1649274817.671214,58.000000,0.000000,4218.077148,4205.512695,4227.948730,4220.384766,4233.846191,4247.692383,4260.769043,4256.922852,4257.307617,4252.948730,4272.692383,4257.179688,4252.051270,4250.384766,0.000000,1.000000,15.000000,,,,0.000000,4.000000,4.000000,4.000000,4.000000,4.000000,4.000000,4.000000,4.000000,4.000000,4.000000,4.000000,4.000000,4.000000,4.000000,100.000000,,,,,,,,,,,,,,,,,,,,,,,,,,,,
1649274817.676215,1649274817.679017,59.000000,0.000000,4217.692383,4197.692383,4227.948730,4217.307617,4228.589844,4246.153809,4244.615234,4233.333496,4251.410156,4249.102539,4263.333496,4249.358887,4245.512695,4247.692383,0.000000,1.000000,15.000000,,,,0.000000,4.000000,4.000000,4.000000,4.000000,4.000000,4.000000,4.000000,4.000000,4.000000,4.000000,4.000000,4.000000,4.000000,4.000000,100.000000,,,,,,,,,,,,,,,,,,,,,,,,,,,,
1649274817.684018,1649274817.686920,60.000000,0.000000,4228.589844,4196.410156,4234.743652,4223.333496,4229.230957,4246.922852,4246.410156,4229.615234,4259.358887,4245.384766,4257.820313,4253.846191,4243.846191,4252.051270,0.000000,1.000000,15.000000,,,,0.000000,4.000000,4.000000,4.000000,4.000000,4.000000,4.000000,4.000000,4.000000,4.000000,4.000000,4.000000,4.000000,4.000000,4.000000,100.000000,,,,,,,,,,,,,,,,,15.000000,0.000000,0.184204,0.613525,-0.371033,0.672302,0.961440,-0.286625,-0.037598,-32.449837,-104.228271,0.299077
1649274817.691821,1649274817.694823,61.000000,0.000000,4231.410156,4206.922852,4231.794922,4233.974121,4241.538574,4248.589844,4244.487305,4229.358887,4254.230957,4246.666504,4262.307617,4263.077148,4245.769043,4259.743652,0.000000,1.000000,15.000000,,,,0.000000,4.000000,4.000000,4.000000,4.000000,4.000000,4.000000,4.000000,4.000000,4.000000,4.000000,4.000000,4.000000,4.000000,4.000000,100.000000,,,,,,,,,,,,,,,,,,,,,,,,,,,,
1649274817.699624,1649274817.702626,62.000000,0.000000,4228.974121,4214.358887,4230.769043,4228.717773,4237.051270,4247.307617,4232.051270,4231.153809,4249.102539,4256.666504,4274.615234,4265.128418,4253.333496,4261.922852,0.000000,1.000000,15.000000,,,,0.000000,4.000000,4.000000,4.000000,4.000000,4.000000,4.000000,4.000000,4.000000,4.000000,4.000000,4.000000,4.000000,4.000000,4.000000,100.000000,,,,,,,,,,,,,,,,,,,,,,,,,,,,
1649274817.707427,1649274817.710429,63.000000,0.000000,4235.256348,4217.051270,4243.589844,4230.000000,4233.077148,4245.897461,4234.871582,4244.743652,4261.153809,4264.230957,4281.922852,4268.974121,4258.077148,4263.974121,0.000000,1.000000,15.000000,,,,0.000000,4.000000,4.000000,4.000000,4.000000,4.000000,4.000000,4.000000,4.000000,4.000000,4.000000,4.000000,4.000000,4.000000,4.000000,100.000000,,,,,,,,,,,,,,,,,,,,,,,,,,,,
1649274817.715230,1649274817.718132,64.000000,0.000000,4239.230957,4215.256348,4246.025879,4242.692383,4233.589844,4248.589844,4246.666504,4240.384766,4252.179688,4249.743652,4265.769043,4267.179688,4249.871582,4265.384766,3349.000000,1.000000,15.000000,,,,0.000000,4.000000,4.000000,4.000000,4.000000,4.000000,4.000000,4.000000,4.000000,4.000000,4.000000,4.000000,4.000000,4.000000,4.000000,100.000000,,,,,,,,,,,,,,,,,16.000000,0.000000,0.184323,0.613586,-0.371094,0.672180,0.970230,-0.274418,-0.036622,-33.047989,-103.929199,-1.196307
1649274817.723032,1649274817.726035,65.000000,0.000000,4229.871582,4204.102539,4229.487305,4238.205078,4216.538574,4249.487305,4247.692383,4233.974121,4235.897461,4231.538574,4244.615234,4252.051270,4238.589844,4250.384766,3572.000000,1.000000,15.000000,,,,0.000000,4.000000,4.000000,4.000000,4.000000,4.000000,4.000000,4.000000,4.000000,4.000000,4.000000,4.000000,4.000000,4.000000,4.000000,100.000000,,,,,,,,,,,,,,,,,,,,,,,,,,,,
1649274817.730835,1649274817.733838,66.000000,0.000000,4223.589844,4200.769043,4224.487305,4227.436035,4223.077148,4247.051270,4247.692383,4248.846191,4248.205078,4240.641113,4252.692383,4250.897461,4242.563965,4245.641113,3566.000000,1.000000,15.000000,,,,0.000000,4.000000,4.000000,4.000000,4.000000,4.000000,4.000000,4.000000,4.000000,4.000000,4.000000,4.000000,4.000000,4.000000,4.000000,100.000000,,,,,,,,,,,,,,,,,,,,,,,,,,,,
1649274817.738638,1649274817.741741,67.000000,0.000000,4223.717773,4211.794922,4233.333496,4229.102539,4249.102539,4246.922852,4249.615234,4245.128418,4249.743652,4254.358887,4274.230957,4262.692383,4258.974121,4259.743652,3632.000000,1.000000,15.000000,,,,0.000000,4.000000,4.000000,4.000000,4.000000,4.000000,4.000000,4.000000,4.000000,4.000000,4.000000,4.000000,4.000000,4.000000,4.000000,100.000000,,,,,,,,,,,,,,,,,,,,,,,,,,,,
1649274817.746441,1649274817.749644,68.000000,0.000000,4222.179688,4213.333496,4232.051270,4230.512695,4237.692383,4246.666504,4244.487305,4226.282227,4238.333496,4250.512695,4281.794922,4263.333496,4269.358887,4255.769043,3619.000000,1.000000,15.000000,,,,0.000000,4.000000,4.000000,4.000000,4.000000,4.000000,4.000000,4.000000,4.000000,4.000000,4.000000,4.000000,4.000000,4.000000,4.000000,100.000000,,,,,,,,,,,,,,,,,17.000000,0.000000,0.184219,0.613647,-0.371155,0.672119,0.974136,-0.281743,-0.020508,-33.496605,-103.929199,-0.149538
1649274817.754244,1649274817.757447,69.000000,0.000000,4222.948730,4207.820313,4230.384766,4230.641113,4226.410156,4246.410156,4244.487305,4226.666504,4242.436035,4248.846191,4279.743652,4259.743652,4266.025879,4242.948730,3613.000000,1.000000,15.000000,,,,0.000000,4.000000,4.000000,4.000000,4.000000,4.000000,4.000000,4.000000,4.000000,4.000000,4.000000,4.000000,4.000000,4.000000,4.000000,100.000000,,,,,,,,,,,,,,,,,,,,,,,,,,,,
1649274817.762047,1649274817.765250,70.000000,0.000000,4233.205078,4218.846191,4242.307617,4244.743652,4250.641113,4249.358887,4242.948730,4234.358887,4252.179688,4260.641113,4280.000000,4262.179688,4262.051270,4256.282227,3623.000000,1.000000,15.000000,,,,0.000000,4.000000,4.000000,4.000000,4.000000,4.000000,4.000000,4.000000,4.000000,4.000000,4.000000,4.000000,4.000000,4.000000,4.000000,100.000000,,,,,,,,,,,,,,,,,,,,,,,,,,,,
1649274817.769850,1649274817.773153,71.000000,0.000000,4237.307617,4220.512695,4248.589844,4246.794922,4246.153809,4249.487305,4232.820313,4239.615234,4255.384766,4271.282227,4280.897461,4268.333496,4265.512695,4270.897461,3619.000000,1.000000,15.000000,,,,0.000000,4.000000,4.000000,4.000000,4.000000,4.000000,4.000000,4.000000,4.000000,4.000000,4.000000,4.000000,4.000000,4.000000,4.000000,100.000000,,,,,,,,,,,,,,,,,,,,,,,,,,,,
1649274817.777653,1649274817.781056,72.000000,0.000000,4227.307617,4203.974121,4241.922852,4231.538574,4214.615234,4247.051270,4235.384766,4248.589844,4253.974121,4262.692383,4275.128418,4263.717773,4263.205078,4257.307617,3524.000000,1.000000,15.000000,,,,0.000000,4.000000,4.000000,4.000000,4.000000,4.000000,4.000000,4.000000,4.000000,4.000000,4.000000,4.000000,4.000000,4.000000,4.000000,100.000000,,,,,,,,,,,,,,,,,18.000000,0.000000,0.184096,0.613647,-0.371216,0.672119,0.963394,-0.283696,-0.025391,-33.047989,-104.676888,-1.943999
1649274817.785456,1649274817.788859,73.000000,0.000000,4216.025879,4201.410156,4228.974121,4231.410156,4221.410156,4247.820313,4250.000000,4249.358887,4249.615234,4246.282227,4261.538574,4248.589844,4252.307617,4239.230957,3714.000000,1.000000,15.000000,,,,0.000000,4.000000,4.000000,4.000000,4.000000,4.000000,4.000000,4.000000,4.000000,4.000000,4.000000,4.000000,4.000000,4.000000,4.000000,100.000000,,,,,,,,,,,,,,,,,,,,,,,,,,,,
1649274817.793259,1649274817.796662,74.000000,0.000000,4202.948730,4196.282227,4220.000000,4228.717773,4249.487305,4250.512695,4254.487305,4242.820313,4246.794922,4240.897461,4254.615234,4242.820313,4243.077148,4237.436035,3640.000000,1.000000,15.000000,,,,0.000000,4.000000,4.000000,4.000000,4.000000,4.000000,4.000000,4.000000,4.000000,4.000000,4.000000,4.000000,4.000000,4.000000,4.000000,100.000000,,,,,,,,,,,,,,,,,,,,,,,,,,,,
1649274817.801062,1649274817.804565,75.000000,0.000000,4194.487305,4186.922852,4221.794922,4215.256348,4253.589844,4254.102539,4249.871582,4236.025879,4251.025879,4247.692383,4267.692383,4250.000000,4248.461426,4246.025879,3624.000000,1.000000,15.000000,,,,0.000000,4.000000,4.000000,4.000000,4.000000,4.000000,4.000000,4.000000,4.000000,4.000000,4.000000,4.000000,4.000000,4.000000,4.000000,100.000000,,,,,,,,,,,,,,,,,,,,,,,,,,,,
1649274817.808865,1649274817.812468,76.000000,0.000000,4207.820313,4202.948730,4231.538574,4222.692383,4245.769043,4256.794922,4248.589844,4230.128418,4251.538574,4256.794922,4282.051270,4250.769043,4262.820313,4251.410156,3605.000000,1.000000,15.000000,,,,0.000000,4.000000,4.000000,4.000000,4.000000,4.000000,4.000000,4.000000,4.000000,4.000000,4.000000,4.000000,4.000000,4.000000,4.000000,100.000000,,,,,,,,,,,,,,,,,19.000000,0.000000,0.183978,0.613831,-0.370972,0.672119,0.980972,-0.285161,-0.034668,-33.646145,-103.031967,-1.046769
1649274817.816668,1649274817.820271,77.000000,0.000000,4227.820313,4222.948730,4241.538574,4237.436035,4250.128418,4257.051270,4245.897461,4237.948730,4251.922852,4258.846191,4275.384766,4251.410156,4266.666504,4248.205078,3507.000000,1.000000,15.000000,,,,0.000000,4.000000,4.000000,4.000000,4.000000,4.000000,4.000000,4.000000,4.000000,4.000000,4.000000,4.000000,4.000000,4.000000,4.000000,100.000000,,,,,,,,,,,,,,,,,,,,,,,,,,,,
1649274817.824471,1649274817.828074,78.000000,0.000000,4226.666504,4222.436035,4245.256348,4236.025879,4248.717773,4260.000000,4248.974121,4251.666504,4258.589844,4256.922852,4263.974121,4257.563965,4260.512695,4245.512695,3640.000000,1.000000,15.000000,,,,0.000000,4.000000,4.000000,4.000000,4.000000,4.000000,4.000000,4.000000,4.000000,4.000000,4.000000,4.000000,4.000000,4.000000,4.000000,100.000000,,,,,,,,,,,,,,,,,,,,,,,,,,,,
1649274817.832273,1649274817.835977,79.000000,0.000000,4217.051270,4213.205078,4241.153809,4235.256348,4231.666504,4263.717773,4252.820313,4248.974121,4257.692383,4251.153809,4266.153809,4252.948730,4256.025879,4245.641113,3624.000000,1.000000,15.000000,,,,0.000000,4.000000,4.000000,4.000000,4.000000,4.000000,4.000000,4.000000,4.000000,4.000000,4.000000,4.000000,4.000000,4.000000,4.000000,100.000000,,,,,,,,,,,,,,,,,,,,,,,,,,,,
1649274817.840076,1649274817.843880,80.000000,0.000000,4213.205078,4203.589844,4233.717773,4228.077148,4224.871582,4261.794922,4249.230957,4244.615234,4252.307617,4251.538574,4268.589844,4242.436035,4249.871582,4242.436035,3605.000000,1.000000,15.000000,,,,0.000000,4.000000,4.000000,4.000000,4.000000,4.000000,4.000000,4.000000,4.000000,4.000000,4.000000,4.000000,4.000000,4.000000,4.000000,100.000000,,,,,,,,,,,,,,,,,20.000000,0.000000,0.184017,0.613953,-0.370972,0.671997,0.975113,-0.272953,-0.020996,-33.496605,-103.331047,-1.196307
1649274817.847879,1649274817.851683,81.000000,0.000000,4202.436035,4196.153809,4228.846191,4216.922852,4238.077148,4260.000000,4254.743652,4253.846191,4255.000000,4260.384766,4263.077148,4243.717773,4243.589844,4240.641113,3507.000000,1.000000,15.000000,,,,0.000000,4.000000,4.000000,4.000000,4.000000,4.000000,4.000000,4.000000,4.000000,4.000000,4.000000,4.000000,4.000000,4.000000,4.000000,100.000000,,,,,,,,,,,,,,,,,,,,,,,,,,,,
1649274817.855682,1649274817.859486,82.000000,0.000000,4196.410156,4199.487305,4230.000000,4225.512695,4251.794922,4261.538574,4264.358887,4266.538574,4265.128418,4263.205078,4262.307617,4251.282227,4252.820313,4244.871582,3640.000000,1.000000,15.000000,,,,0.000000,4.000000,4.000000,4.000000,4.000000,4.000000,4.000000,4.000000,4.000000,4.000000,4.000000,4.000000,4.000000,4.000000,4.000000,100.000000,,,,,,,,,,,,,,,,,,,,,,,,,,,,
1649274817.863485,1649274817.867189,83.000000,0.000000,4209.487305,4204.615234,4240.769043,4236.666504,4239.230957,4257.563965,4260.128418,4267.436035,4270.769043,4262.948730,4266.922852,4252.692383,4266.794922,4248.333496,3624.000000,1.000000,15.000000,,,,0.000000,4.000000,4.000000,4.000000,4.000000,4.000000,4.000000,4.000000,4.000000,4.000000,4.000000,4.000000,4.000000,4.000000,4.000000,100.000000,,,,,,,,,,,,,,,,,,,,,,,,,,,,
