title:Eleccion2, start timestamp:1649274990.912248, stop timestamp:1649275007.509380, headset type:EPOCPLUS, headset serial:4A2C0467, headset firmware:633, channels:67, sampling rate:eeg_128;mot_32, samples:2128      , version:2.1, 
Timestamp,OriginalTimestamp,EEG.Counter,EEG.Interpolated,EEG.AF3,EEG.F7,EEG.F3,EEG.FC5,EEG.T7,EEG.P7,EEG.O1,EEG.O2,EEG.P8,EEG.T8,EEG.FC6,EEG.F4,EEG.F8,EEG.AF4,EEG.RawCq,EEG.Battery,EEG.BatteryPercent,MarkerIndex,MarkerType,MarkerValueInt,EEG.MarkerHardware,CQ.AF3,CQ.F7,CQ.F3,CQ.FC5,CQ.T7,CQ.P7,CQ.O1,CQ.O2,CQ.P8,CQ.T8,CQ.FC6,CQ.F4,CQ.F8,CQ.AF4,CQ.Overall,EQ.SampleRateQuality,EQ.OVERALL,EQ.AF3,EQ.F7,EQ.F3,EQ.FC5,EQ.T7,EQ.P7,EQ.O1,EQ.O2,EQ.P8,EQ.T8,EQ.FC6,EQ.F4,EQ.F8,EQ.AF4,MOT.CounterMems,MOT.InterpolatedMems,MOT.Q0,MOT.Q1,MOT.Q2,MOT.Q3,MOT.AccX,MOT.AccY,MOT.AccZ,MOT.MagX,MOT.MagY,MOT.MagZ
1649274990.912248,1649274990.930636,116.000000,0.000000,4194.102539,4179.615234,4197.948730,4192.820313,4185.641113,4196.410156,4184.358887,4190.128418,4197.436035,4187.436035,4201.922852,4203.461426,4213.077148,4207.948730,3601.000000,1.000000,15.000000,,,,0.000000,4.000000,4.000000,4.000000,4.000000,4.000000,4.000000,4.000000,4.000000,4.000000,4.000000,4.000000,4.000000,4.000000,4.000000,100.000000,,,,,,,,,,,,,,,,,29.000000,0.000000,0.247508,0.549622,-0.490662,0.629211,0.937514,-0.366705,-0.068360,-32.748913,-106.919968,0.448615
1649274990.920051,1649274990.938539,117.000000,0.000000,4197.692383,4178.461426,4201.922852,4195.769043,4183.589844,4201.538574,4190.641113,4172.436035,4177.563965,4179.871582,4202.179688,4208.077148,4210.641113,4213.205078,3510.000000,1.000000,15.000000,,,,0.000000,4.000000,4.000000,4.000000,4.000000,4.000000,4.000000,4.000000,4.000000,4.000000,4.000000,4.000000,4.000000,4.000000,4.000000,100.000000,,,,,,,,,,,,,,,,,,,,,,,,,,,,
1649274990.927854,1649274990.946342,118.000000,0.000000,4210.000000,4175.512695,4215.256348,4194.102539,4168.077148,4195.384766,4188.461426,4166.410156,4172.179688,4188.846191,4206.153809,4213.077148,4212.051270,4222.948730,3615.000000,1.000000,15.000000,,,,0.000000,4.000000,4.000000,4.000000,4.000000,4.000000,4.000000,4.000000,4.000000,4.000000,4.000000,4.000000,4.000000,4.000000,4.000000,100.000000,,,,,,,,,,,,,,,,,,,,,,,,,,,,
1649274990.935657,1649274990.954145,119.000000,0.000000,4219.743652,4180.512695,4220.769043,4190.000000,4176.794922,4206.153809,4206.153809,4189.743652,4194.487305,4190.000000,4216.153809,4225.256348,4224.487305,4239.102539,3622.000000,1.000000,15.000000,,,,0.000000,4.000000,4.000000,4.000000,4.000000,4.000000,4.000000,4.000000,4.000000,4.000000,4.000000,4.000000,4.000000,4.000000,4.000000,100.000000,,,,,,,,,,,,,,,,,,,,,,,,,,,,
1649274990.943460,1649274990.962148,120.000000,0.000000,4214.743652,4182.179688,4217.179688,4193.589844,4192.563965,4213.077148,4216.922852,4201.410156,4202.051270,4182.563965,4224.102539,4233.205078,4230.256348,4248.717773,3601.000000,1.000000,15.000000,,,,0.000000,4.000000,4.000000,4.000000,4.000000,4.000000,4.000000,4.000000,4.000000,4.000000,4.000000,4.000000,4.000000,4.000000,4.000000,100.000000,,,,,,,,,,,,,,,,,30.000000,0.000000,0.248781,0.550476,-0.489685,0.628723,0.948745,-0.354009,-0.071290,-33.496605,-107.667656,-0.149538
1649274990.951263,1649274990.969952,121.000000,0.000000,4212.436035,4179.358887,4222.051270,4200.897461,4176.410156,4200.384766,4201.410156,4200.769043,4200.384766,4188.205078,4229.743652,4231.666504,4217.948730,4247.307617,3510.000000,1.000000,15.000000,,,,0.000000,4.000000,4.000000,4.000000,4.000000,4.000000,4.000000,4.000000,4.000000,4.000000,4.000000,4.000000,4.000000,4.000000,4.000000,100.000000,,,,,,,,,,,,,,,,,,,,,,,,,,,,
1649274990.959066,1649274990.977755,122.000000,0.000000,4227.051270,4189.230957,4236.666504,4209.743652,4170.000000,4206.282227,4198.589844,4216.922852,4215.000000,4210.512695,4233.205078,4234.358887,4216.025879,4247.563965,3615.000000,1.000000,15.000000,,,,0.000000,4.000000,4.000000,4.000000,4.000000,4.000000,4.000000,4.000000,4.000000,4.000000,4.000000,4.000000,4.000000,4.000000,4.000000,100.000000,,,,,,,,,,,,,,,,,,,,,,,,,,,,
1649274990.966869,1649274990.985658,123.000000,0.000000,4228.846191,4205.512695,4235.769043,4213.717773,4200.384766,4223.205078,4207.051270,4228.333496,4228.077148,4223.333496,4222.436035,4238.205078,4230.641113,4245.384766,3622.000000,1.000000,15.000000,,,,0.000000,4.000000,4.000000,4.000000,4.000000,4.000000,4.000000,4.000000,4.000000,4.000000,4.000000,4.000000,4.000000,4.000000,4.000000,100.000000,,,,,,,,,,,,,,,,,,,,,,,,,,,,
1649274990.974672,1649274990.993461,124.000000,0.000000,4215.512695,4212.307617,4224.358887,4213.717773,4200.769043,4221.025879,4207.563965,4216.666504,4219.358887,4212.051270,4211.410156,4231.922852,4233.717773,4235.128418,3601.000000,1.000000,15.000000,,,,0.000000,4.000000,4.000000,4.000000,4.000000,4.000000,4.000000,4.000000,4.000000,4.000000,4.000000,4.000000,4.000000,4.000000,4.000000,100.000000,,,,,,,,,,,,,,,,,31.000000,0.000000,0.249931,0.551147,-0.488892,0.628296,0.951186,-0.340337,-0.075685,-32.748913,-107.966736,-0.149538
1649274990.982475,1649274991.001364,125.000000,0.000000,4217.051270,4203.974121,4226.410156,4215.769043,4168.333496,4215.897461,4209.743652,4201.282227,4200.384766,4197.692383,4215.641113,4227.436035,4218.077148,4226.282227,3510.000000,1.000000,15.000000,,,,0.000000,4.000000,4.000000,4.000000,4.000000,4.000000,4.000000,4.000000,4.000000,4.000000,4.000000,4.000000,4.000000,4.000000,4.000000,100.000000,,,,,,,,,,,,,,,,,,,,,,,,,,,,
1649274990.990278,1649274991.009167,126.000000,0.000000,4224.615234,4194.102539,4232.948730,4215.641113,4171.922852,4218.717773,4216.666504,4203.205078,4192.436035,4195.641113,4216.153809,4231.410156,4213.333496,4228.846191,3615.000000,1.000000,15.000000,,,,0.000000,4.000000,4.000000,4.000000,4.000000,4.000000,4.000000,4.000000,4.000000,4.000000,4.000000,4.000000,4.000000,4.000000,4.000000,100.000000,,,,,,,,,,,,,,,,,,,,,,,,,,,,
1649274990.998082,1649274991.016971,127.000000,0.000000,4221.538574,4198.333496,4230.512695,4207.307617,4190.256348,4218.205078,4219.358887,4215.769043,4203.461426,4201.410156,4214.487305,4234.358887,4226.025879,4241.282227,52.000000,1.000000,15.000000,,,,0.000000,4.000000,4.000000,4.000000,4.000000,4.000000,4.000000,4.000000,4.000000,4.000000,4.000000,4.000000,4.000000,4.000000,4.000000,100.000000,,,,,,,,,,,,,,,,,,,,,,,,,,,,
1649274991.005885,1649274991.024874,0.000000,0.000000,4217.820313,4198.461426,4230.512695,4201.794922,4188.077148,4215.384766,4215.384766,4220.384766,4207.692383,4204.487305,4223.589844,4238.589844,4230.641113,4249.230957,3359.000000,1.000000,15.000000,,,,0.000000,4.000000,4.000000,4.000000,4.000000,4.000000,4.000000,4.000000,4.000000,4.000000,4.000000,4.000000,4.000000,4.000000,4.000000,100.000000,,,,,,,,,,,,,,,,,0.000000,0.000000,0.251035,0.551697,-0.488098,0.627991,0.944350,-0.335943,-0.096681,-33.347065,-107.817200,-1.794461
1649274991.013687,1649274991.032777,1.000000,0.000000,4218.717773,4187.436035,4229.743652,4202.051270,4183.461426,4212.307617,4215.000000,4217.307617,4197.563965,4195.128418,4221.922852,4234.102539,4223.205078,4237.948730,3565.000000,1.000000,15.000000,,,,0.000000,4.000000,4.000000,4.000000,4.000000,4.000000,4.000000,4.000000,4.000000,4.000000,4.000000,4.000000,4.000000,4.000000,4.000000,100.000000,,,,,,,,,,,,,,,,,,,,,,,,,,,,
1649274991.021491,1649274991.040580,2.000000,0.000000,4217.563965,4180.897461,4220.641113,4196.922852,4176.794922,4206.538574,4217.307617,4214.102539,4199.230957,4186.282227,4206.153809,4214.871582,4215.000000,4212.692383,3568.000000,1.000000,15.000000,,,,0.000000,4.000000,4.000000,4.000000,4.000000,4.000000,4.000000,4.000000,4.000000,4.000000,4.000000,4.000000,4.000000,4.000000,4.000000,100.000000,,,,,,,,,,,,,,,,,,,,,,,,,,,,
1649274991.029294,1649274991.048483,3.000000,0.000000,4212.051270,4186.666504,4216.410156,4197.307617,4171.410156,4206.025879,4216.794922,4207.307617,4197.436035,4182.948730,4202.307617,4204.871582,4211.153809,4200.256348,3624.000000,1.000000,15.000000,,,,0.000000,4.000000,4.000000,4.000000,4.000000,4.000000,4.000000,4.000000,4.000000,4.000000,4.000000,4.000000,4.000000,4.000000,4.000000,100.000000,,,,,,,,,,,,,,,,,,,,,,,,,,,,
1649274991.037097,1649274991.056386,4.000000,0.000000,4206.538574,4188.461426,4223.077148,4197.948730,4180.641113,4211.794922,4217.436035,4197.307617,4184.615234,4172.179688,4205.128418,4212.307617,4212.948730,4208.205078,3609.000000,1.000000,15.000000,,,,0.000000,4.000000,4.000000,4.000000,4.000000,4.000000,4.000000,4.000000,4.000000,4.000000,4.000000,4.000000,4.000000,4.000000,4.000000,100.000000,,,,,,,,,,,,,,,,,1.000000,0.000000,0.251791,0.552246,-0.487244,0.627869,0.963394,-0.310552,-0.086915,-34.244297,-108.415352,0.149538
1649274991.044900,1649274991.064189,5.000000,0.000000,4212.179688,4187.307617,4230.384766,4197.563965,4186.410156,4216.410156,4219.615234,4200.897461,4189.743652,4164.230957,4204.615234,4222.307617,4219.871582,4228.077148,3633.000000,1.000000,15.000000,,,,0.000000,4.000000,4.000000,4.000000,4.000000,4.000000,4.000000,4.000000,4.000000,4.000000,4.000000,4.000000,4.000000,4.000000,4.000000,100.000000,,,,,,,,,,,,,,,,,,,,,,,,,,,,
1649274991.052703,1649274991.071993,6.000000,0.000000,4225.128418,4201.538574,4236.153809,4209.871582,4178.846191,4218.461426,4218.717773,4212.051270,4203.333496,4172.179688,4211.666504,4231.025879,4228.461426,4242.692383,3640.000000,1.000000,15.000000,,,,0.000000,4.000000,4.000000,4.000000,4.000000,4.000000,4.000000,4.000000,4.000000,4.000000,4.000000,4.000000,4.000000,4.000000,4.000000,100.000000,,,,,,,,,,,,,,,,,,,,,,,,,,,,
1649274991.060506,1649274991.079896,7.000000,0.000000,4229.102539,4214.487305,4237.692383,4218.205078,4188.974121,4217.948730,4215.384766,4209.358887,4200.000000,4175.641113,4221.025879,4233.589844,4236.666504,4238.846191,3631.000000,1.000000,15.000000,,,,0.000000,4.000000,4.000000,4.000000,4.000000,4.000000,4.000000,4.000000,4.000000,4.000000,4.000000,4.000000,4.000000,4.000000,4.000000,100.000000,,,,,,,,,,,,,,,,,,,,,,,,,,,,
1649274991.068309,1649274991.087799,8.000000,0.000000,4226.666504,4214.743652,4232.179688,4212.051270,4205.256348,4213.077148,4210.000000,4203.846191,4197.948730,4166.153809,4216.282227,4224.487305,4231.794922,4231.282227,3564.000000,1.000000,15.000000,,,,0.000000,4.000000,4.000000,4.000000,4.000000,4.000000,4.000000,4.000000,4.000000,4.000000,4.000000,4.000000,4.000000,4.000000,4.000000,100.000000,,,,,,,,,,,,,,,,,2.000000,0.000000,0.251986,0.552856,-0.486450,0.627869,0.950210,-0.315435,-0.089357,-34.094757,-109.312584,0.000000
1649274991.076112,1649274991.095602,9.000000,0.000000,4228.333496,4213.974121,4229.871582,4211.538574,4198.333496,4215.769043,4209.230957,4213.077148,4209.871582,4164.230957,4206.153809,4215.897461,4219.230957,4234.487305,3697.000000,1.000000,15.000000,,,,0.000000,4.000000,4.000000,4.000000,4.000000,4.000000,4.000000,4.000000,4.000000,4.000000,4.000000,4.000000,4.000000,4.000000,4.000000,100.000000,,,,,,,,,,,,,,,,,,,,,,,,,,,,
1649274991.083915,1649274991.103505,10.000000,0.000000,4231.666504,4217.307617,4233.974121,4217.307617,4193.846191,4225.641113,4215.256348,4221.666504,4208.974121,4168.205078,4210.641113,4218.333496,4229.743652,4236.282227,3627.000000,1.000000,15.000000,,,,0.000000,4.000000,4.000000,4.000000,4.000000,4.000000,4.000000,4.000000,4.000000,4.000000,4.000000,4.000000,4.000000,4.000000,4.000000,100.000000,,,,,,,,,,,,,,,,,,,,,,,,,,,,
1649274991.091718,1649274991.111308,11.000000,0.000000,4232.051270,4219.871582,4235.000000,4218.589844,4202.436035,4224.487305,4216.153809,4219.743652,4206.153809,4170.769043,4229.871582,4226.153809,4251.153809,4233.717773,3626.000000,1.000000,15.000000,,,,0.000000,4.000000,4.000000,4.000000,4.000000,4.000000,4.000000,4.000000,4.000000,4.000000,4.000000,4.000000,4.000000,4.000000,4.000000,100.000000,,,,,,,,,,,,,,,,,,,,,,,,,,,,
1649274991.099521,1649274991.119211,12.000000,0.000000,4230.512695,4224.743652,4229.230957,4218.589844,4196.538574,4217.307617,4214.230957,4215.897461,4213.077148,4173.717773,4230.641113,4229.871582,4251.282227,4238.077148,3611.000000,1.000000,15.000000,,,,0.000000,4.000000,4.000000,4.000000,4.000000,4.000000,4.000000,4.000000,4.000000,4.000000,4.000000,4.000000,4.000000,4.000000,4.000000,100.000000,,,,,,,,,,,,,,,,,3.000000,0.000000,0.251263,0.553467,-0.485657,0.628235,0.953628,-0.305180,-0.095705,-33.047989,-107.966736,-1.196307
1649274991.107324,1649274991.127015,13.000000,0.000000,4237.436035,4228.589844,4231.922852,4217.563965,4180.641113,4220.384766,4217.051270,4218.077148,4215.897461,4170.769043,4215.641113,4227.692383,4246.666504,4245.384766,3521.000000,1.000000,15.000000,,,,0.000000,4.000000,4.000000,4.000000,4.000000,4.000000,4.000000,4.000000,4.000000,4.000000,4.000000,4.000000,4.000000,4.000000,4.000000,100.000000,,,,,,,,,,,,,,,,,,,,,,,,,,,,
1649274991.115127,1649274991.134818,14.000000,0.000000,4249.487305,4222.179688,4242.820313,4222.179688,4191.922852,4223.589844,4213.717773,4222.307617,4214.615234,4176.282227,4221.666504,4229.358887,4251.282227,4244.871582,3627.000000,1.000000,15.000000,,,,0.000000,4.000000,4.000000,4.000000,4.000000,4.000000,4.000000,4.000000,4.000000,4.000000,4.000000,4.000000,4.000000,4.000000,4.000000,100.000000,,,,,,,,,,,,,,,,,,,,,,,,,,,,
1649274991.122931,1649274991.142721,15.000000,0.000000,4246.410156,4217.563965,4242.051270,4227.436035,4212.563965,4220.000000,4209.615234,4229.487305,4218.333496,4196.922852,4234.358887,4236.538574,4250.769043,4246.922852,3626.000000,1.000000,15.000000,,,,0.000000,4.000000,4.000000,4.000000,4.000000,4.000000,4.000000,4.000000,4.000000,4.000000,4.000000,4.000000,4.000000,4.000000,4.000000,100.000000,,,,,,,,,,,,,,,,,,,,,,,,,,,,
1649274991.130734,1649274991.150624,16.000000,0.000000,4233.974121,4217.692383,4231.410156,4216.282227,4208.589844,4221.538574,4217.820313,4238.205078,4226.282227,4198.974121,4235.641113,4238.589844,4245.512695,4251.666504,0.000000,1.000000,15.000000,,,,0.000000,4.000000,4.000000,4.000000,4.000000,4.000000,4.000000,4.000000,4.000000,4.000000,4.000000,4.000000,4.000000,4.000000,4.000000,100.000000,,,,,,,,,,,,,,,,,4.000000,0.000000,0.250705,0.553833,-0.485291,0.628418,0.940444,-0.316411,-0.083009,-35.590141,-107.817200,1.046769
1649274991.138537,1649274991.158427,17.000000,0.000000,4230.769043,4213.589844,4229.871582,4205.256348,4202.692383,4222.051270,4221.666504,4239.487305,4222.051270,4187.692383,4228.205078,4232.179688,4243.974121,4242.948730,0.000000,1.000000,15.000000,,,,0.000000,4.000000,4.000000,4.000000,4.000000,4.000000,4.000000,4.000000,4.000000,4.000000,4.000000,4.000000,4.000000,4.000000,4.000000,100.000000,,,,,,,,,,,,,,,,,,,,,,,,,,,,
1649274991.146340,1649274991.166230,18.000000,0.000000,4235.256348,4217.307617,4235.897461,4214.102539,4203.077148,4216.794922,4214.615234,4228.077148,4212.948730,4195.128418,4218.205078,4228.717773,4252.948730,4238.589844,0.000000,1.000000,15.000000,,,,0.000000,4.000000,4.000000,4.000000,4.000000,4.000000,4.000000,4.000000,4.000000,4.000000,4.000000,4.000000,4.000000,4.000000,4.000000,100.000000,,,,,,,,,,,,,,,,,,,,,,,,,,,,
1649274991.154143,1649274991.174134,19.000000,0.000000,4238.461426,4233.589844,4237.692383,4229.615234,4197.563965,4221.153809,4213.333496,4219.871582,4214.615234,4197.436035,4220.256348,4231.410156,4263.974121,4245.384766,0.000000,1.000000,15.000000,,,,0.000000,4.000000,4.000000,4.000000,4.000000,4.000000,4.000000,4.000000,4.000000,4.000000,4.000000,4.000000,4.000000,4.000000,4.000000,100.000000,,,,,,,,,,,,,,,,,,,,,,,,,,,,
1649274991.161946,1649274991.182037,20.000000,0.000000,4232.948730,4237.563965,4232.692383,4227.307617,4203.333496,4230.512695,4216.538574,4213.717773,4209.615234,4175.256348,4233.205078,4234.230957,4258.461426,4241.153809,0.000000,1.000000,15.000000,,,,0.000000,4.000000,4.000000,4.000000,4.000000,4.000000,4.000000,4.000000,4.000000,4.000000,4.000000,4.000000,4.000000,4.000000,4.000000,100.000000,,,,,,,,,,,,,,,,,5.000000,0.000000,0.249099,0.554260,-0.484680,0.629150,0.937026,-0.332036,-0.069825,-33.047989,-107.966736,-0.897231
1649274991.169749,1649274991.189840,21.000000,0.000000,4228.589844,4230.897461,4230.000000,4218.589844,4216.922852,4231.025879,4215.897461,4213.846191,4198.077148,4167.051270,4233.461426,4237.436035,4246.025879,4235.128418,0.000000,1.000000,15.000000,,,,0.000000,4.000000,4.000000,4.000000,4.000000,4.000000,4.000000,4.000000,4.000000,4.000000,4.000000,4.000000,4.000000,4.000000,4.000000,100.000000,,,,,,,,,,,,,,,,,,,,,,,,,,,,
1649274991.177552,1649274991.197743,22.000000,0.000000,4242.051270,4231.794922,4240.641113,4224.102539,4204.615234,4230.641113,4217.563965,4232.692383,4214.487305,4186.922852,4225.769043,4243.205078,4245.384766,4245.512695,0.000000,1.000000,15.000000,,,,0.000000,4.000000,4.000000,4.000000,4.000000,4.000000,4.000000,4.000000,4.000000,4.000000,4.000000,4.000000,4.000000,4.000000,4.000000,100.000000,,,,,,,,,,,,,,,,,,,,,,,,,,,,
1649274991.185355,1649274991.205546,23.000000,0.000000,4254.230957,4230.897461,4248.333496,4233.461426,4194.743652,4236.538574,4220.897461,4246.410156,4239.743652,4202.948730,4231.282227,4244.487305,4254.230957,4253.589844,0.000000,1.000000,15.000000,,,,0.000000,4.000000,4.000000,4.000000,4.000000,4.000000,4.000000,4.000000,4.000000,4.000000,4.000000,4.000000,4.000000,4.000000,4.000000,100.000000,,,,,,,,,,,,,,,,,,,,,,,,,,,,
1649274991.193158,1649274991.213449,24.000000,0.000000,4245.256348,4234.230957,4237.948730,4232.563965,4208.077148,4232.051270,4217.948730,4230.256348,4226.794922,4201.922852,4236.922852,4242.436035,4263.974121,4247.692383,0.000000,1.000000,15.000000,,,,0.000000,4.000000,4.000000,4.000000,4.000000,4.000000,4.000000,4.000000,4.000000,4.000000,4.000000,4.000000,4.000000,4.000000,4.000000,100.000000,,,,,,,,,,,,,,,,,6.000000,0.000000,0.247499,0.554871,-0.484009,0.629761,0.968765,-0.338384,-0.083986,-32.748913,-107.667656,-1.196307
1649274991.200961,1649274991.221352,25.000000,0.000000,4241.025879,4246.025879,4231.282227,4228.333496,4208.974121,4224.615234,4216.922852,4214.358887,4206.538574,4196.666504,4232.948730,4244.871582,4271.794922,4245.897461,0.000000,1.000000,15.000000,,,,0.000000,4.000000,4.000000,4.000000,4.000000,4.000000,4.000000,4.000000,4.000000,4.000000,4.000000,4.000000,4.000000,4.000000,4.000000,100.000000,,,,,,,,,,,,,,,,,,,,,,,,,,,,
1649274991.208764,1649274991.229156,26.000000,0.000000,4250.641113,4246.153809,4236.538574,4228.333496,4206.410156,4232.436035,4221.410156,4222.436035,4216.538574,4199.871582,4232.179688,4250.128418,4270.512695,4247.692383,0.000000,1.000000,15.000000,,,,0.000000,4.000000,4.000000,4.000000,4.000000,4.000000,4.000000,4.000000,4.000000,4.000000,4.000000,4.000000,4.000000,4.000000,4.000000,100.000000,,,,,,,,,,,,,,,,,,,,,,,,,,,,
1649274991.216567,1649274991.236959,27.000000,0.000000,4246.794922,4239.102539,4236.282227,4231.794922,4214.743652,4231.922852,4217.692383,4227.051270,4228.333496,4197.820313,4231.282227,4247.307617,4262.051270,4250.769043,0.000000,1.000000,15.000000,,,,0.000000,4.000000,4.000000,4.000000,4.000000,4.000000,4.000000,4.000000,4.000000,4.000000,4.000000,4.000000,4.000000,4.000000,4.000000,100.000000,,,,,,,,,,,,,,,,,,,,,,,,,,,,
1649274991.224371,1649274991.244862,28.000000,0.000000,4235.128418,4243.717773,4228.077148,4234.743652,4212.179688,4222.948730,4213.077148,4226.282227,4222.179688,4192.436035,4221.538574,4236.410156,4260.000000,4250.128418,0.000000,1.000000,15.000000,,,,0.000000,4.000000,4.000000,4.000000,4.000000,4.000000,4.000000,4.000000,4.000000,4.000000,4.000000,4.000000,4.000000,4.000000,4.000000,100.000000,,,,,,,,,,,,,,,,,7.000000,0.000000,0.246333,0.555542,-0.483276,0.630188,0.949233,-0.352056,-0.083986,-34.543373,-107.817200,-0.598154
1649274991.232174,1649274991.252765,29.000000,0.000000,4228.717773,4244.230957,4217.563965,4223.717773,4212.820313,4228.077148,4217.820313,4225.256348,4215.641113,4199.871582,4212.179688,4228.077148,4263.717773,4233.717773,0.000000,1.000000,15.000000,,,,0.000000,4.000000,4.000000,4.000000,4.000000,4.000000,4.000000,4.000000,4.000000,4.000000,4.000000,4.000000,4.000000,4.000000,4.000000,100.000000,,,,,,,,,,,,,,,,,,,,,,,,,,,,
1649274991.239977,1649274991.260568,30.000000,0.000000,4226.410156,4233.717773,4211.538574,4212.563965,4222.179688,4235.000000,4220.769043,4222.820313,4219.358887,4207.563965,4210.512695,4226.538574,4259.615234,4218.205078,0.000000,1.000000,15.000000,,,,0.000000,4.000000,4.000000,4.000000,4.000000,4.000000,4.000000,4.000000,4.000000,4.000000,4.000000,4.000000,4.000000,4.000000,4.000000,100.000000,,,,,,,,,,,,,,,,,,,,,,,,,,,,
1649274991.247780,1649274991.268371,31.000000,0.000000,4232.436035,4233.974121,4218.589844,4220.769043,4209.743652,4231.153809,4219.358887,4222.436035,4212.563965,4206.666504,4214.487305,4228.846191,4256.538574,4223.846191,0.000000,1.000000,15.000000,,,,0.000000,4.000000,4.000000,4.000000,4.000000,4.000000,4.000000,4.000000,4.000000,4.000000,4.000000,4.000000,4.000000,4.000000,4.000000,100.000000,,,,,,,,,,,,,,,,,,,,,,,,,,,,
1649274991.255583,1649274991.276274,32.000000,0.000000,4242.820313,4245.256348,4229.230957,4232.563965,4202.051270,4226.666504,4219.871582,4222.948730,4206.410156,4216.666504,4230.897461,4238.589844,4271.025879,4248.589844,0.000000,1.000000,15.000000,,,,0.000000,4.000000,4.000000,4.000000,4.000000,4.000000,4.000000,4.000000,4.000000,4.000000,4.000000,4.000000,4.000000,4.000000,4.000000,100.000000,,,,,,,,,,,,,,,,,8.000000,0.000000,0.244797,0.556335,-0.482666,0.630554,0.945815,-0.338872,-0.093751,-34.094757,-105.275047,0.000000
1649274991.263386,1649274991.284178,33.000000,0.000000,4246.922852,4243.717773,4231.410156,4233.077148,4218.589844,4220.384766,4218.077148,4220.897461,4217.051270,4226.153809,4236.410156,4244.230957,4274.358887,4253.333496,0.000000,1.000000,15.000000,,,,0.000000,4.000000,4.000000,4.000000,4.000000,4.000000,4.000000,4.000000,4.000000,4.000000,4.000000,4.000000,4.000000,4.000000,4.000000,100.000000,,,,,,,,,,,,,,,,,,,,,,,,,,,,
1649274991.271189,1649274991.291981,34.000000,0.000000,4245.256348,4232.820313,4230.256348,4231.153809,4218.461426,4216.153809,4218.333496,4214.358887,4218.461426,4213.461426,4221.025879,4237.051270,4261.922852,4235.512695,0.000000,1.000000,15.000000,,,,0.000000,4.000000,4.000000,4.000000,4.000000,4.000000,4.000000,4.000000,4.000000,4.000000,4.000000,4.000000,4.000000,4.000000,4.000000,100.000000,,,,,,,,,,,,,,,,,,,,,,,,,,,,
1649274991.278992,1649274991.299784,35.000000,0.000000,4249.358887,4236.922852,4232.948730,4232.179688,4204.230957,4223.461426,4220.128418,4226.538574,4221.410156,4211.025879,4227.179688,4243.077148,4273.461426,4239.871582,0.000000,1.000000,15.000000,,,,0.000000,4.000000,4.000000,4.000000,4.000000,4.000000,4.000000,4.000000,4.000000,4.000000,4.000000,4.000000,4.000000,4.000000,4.000000,100.000000,,,,,,,,,,,,,,,,,,,,,,,,,,,,
1649274991.286795,1649274991.307687,36.000000,0.000000,4247.563965,4249.615234,4233.077148,4230.641113,4194.358887,4215.641113,4206.666504,4235.897461,4232.563965,4223.589844,4239.102539,4249.743652,4283.974121,4251.410156,0.000000,1.000000,15.000000,,,,0.000000,4.000000,4.000000,4.000000,4.000000,4.000000,4.000000,4.000000,4.000000,4.000000,4.000000,4.000000,4.000000,4.000000,4.000000,100.000000,,,,,,,,,,,,,,,,,9.000000,0.000000,0.243517,0.557129,-0.482239,0.630676,0.955581,-0.335943,-0.086915,-33.347065,-109.312584,-0.299077
1649274991.294598,1649274991.315590,37.000000,0.000000,4235.641113,4249.743652,4229.743652,4231.025879,4189.615234,4204.615234,4197.820313,4220.256348,4221.025879,4218.589844,4225.512695,4235.641113,4269.358887,4239.102539,0.000000,1.000000,15.000000,,,,0.000000,4.000000,4.000000,4.000000,4.000000,4.000000,4.000000,4.000000,4.000000,4.000000,4.000000,4.000000,4.000000,4.000000,4.000000,100.000000,,,,,,,,,,,,,,,,,,,,,,,,,,,,
1649274991.302401,1649274991.323393,38.000000,0.000000,4230.128418,4244.230957,4225.256348,4230.256348,4196.025879,4222.436035,4217.179688,4215.000000,4208.205078,4204.358887,4210.128418,4225.000000,4256.666504,4222.179688,0.000000,1.000000,15.000000,,,,0.000000,4.000000,4.000000,4.000000,4.000000,4.000000,4.000000,4.000000,4.000000,4.000000,4.000000,4.000000,4.000000,4.000000,4.000000,100.000000,,,,,,,,,,,,,,,,,,,,,,,,,,,,
1649274991.310204,1649274991.331197,39.000000,0.000000,4230.384766,4245.897461,4220.384766,4223.461426,4205.769043,4233.974121,4221.153809,4219.615234,4214.743652,4195.769043,4206.410156,4227.179688,4252.436035,4223.077148,0.000000,1.000000,15.000000,,,,0.000000,4.000000,4.000000,4.000000,4.000000,4.000000,4.000000,4.000000,4.000000,4.000000,4.000000,4.000000,4.000000,4.000000,4.000000,100.000000,,,,,,,,,,,,,,,,,,,,,,,,,,,,
1649274991.318007,1649274991.339100,40.000000,0.000000,4227.820313,4244.487305,4221.666504,4215.897461,4204.102539,4211.282227,4193.846191,4204.743652,4207.436035,4186.410156,4207.563965,4225.641113,4255.128418,4226.025879,0.000000,1.000000,15.000000,,,,0.000000,4.000000,4.000000,4.000000,4.000000,4.000000,4.000000,4.000000,4.000000,4.000000,4.000000,4.000000,4.000000,4.000000,4.000000,100.000000,,,,,,,,,,,,,,,,,10.000000,0.000000,0.242227,0.557800,-0.481873,0.630859,0.950210,-0.343267,-0.091310,-34.094757,-107.817200,-3.887999
1649274991.325811,1649274991.347003,41.000000,0.000000,4224.743652,4231.922852,4227.563965,4214.743652,4202.051270,4193.589844,4189.358887,4190.641113,4188.846191,4177.436035,4212.692383,4226.410156,4265.384766,4223.717773,0.000000,1.000000,15.000000,,,,0.000000,4.000000,4.000000,4.000000,4.000000,4.000000,4.000000,4.000000,4.000000,4.000000,4.000000,4.000000,4.000000,4.000000,4.000000,100.000000,,,,,,,,,,,,,,,,,,,,,,,,,,,,
1649274991.333614,1649274991.354806,42.000000,0.000000,4229.230957,4230.384766,4230.897461,4220.897461,4200.641113,4206.794922,4206.282227,4207.563965,4194.743652,4185.384766,4219.358887,4238.077148,4267.051270,4226.410156,0.000000,1.000000,15.000000,,,,0.000000,4.000000,4.000000,4.000000,4.000000,4.000000,4.000000,4.000000,4.000000,4.000000,4.000000,4.000000,4.000000,4.000000,4.000000,100.000000,,,,,,,,,,,,,,,,,,,,,,,,,,,,
1649274991.341416,1649274991.362609,43.000000,0.000000,4234.230957,4242.948730,4232.307617,4226.538574,4194.358887,4221.025879,4207.436035,4219.871582,4213.205078,4200.256348,4226.410156,4244.487305,4267.948730,4232.179688,0.000000,1.000000,15.000000,,,,0.000000,4.000000,4.000000,4.000000,4.000000,4.000000,4.000000,4.000000,4.000000,4.000000,4.000000,4.000000,4.000000,4.000000,4.000000,100.000000,,,,,,,,,,,,,,,,,,,,,,,,,,,,
1649274991.349220,1649274991.370512,44.000000,0.000000,4231.282227,4244.615234,4232.436035,4228.717773,4186.410156,4218.846191,4204.871582,4217.692383,4215.897461,4210.769043,4231.794922,4242.820313,4278.717773,4234.615234,0.000000,1.000000,15.000000,,,,0.000000,4.000000,4.000000,4.000000,4.000000,4.000000,4.000000,4.000000,4.000000,4.000000,4.000000,4.000000,4.000000,4.000000,4.000000,100.000000,1.000000,58.333332,4.000000,3.000000,4.000000,4.000000,3.000000,4.000000,4.000000,4.000000,4.000000,4.000000,4.000000,4.000000,1.000000,4.000000,11.000000,0.000000,0.241135,0.558350,-0.481384,0.631165,0.942885,-0.357916,-0.086915,-33.945221,-107.667656,-1.644923
1649274991.357023,1649274991.378415,45.000000,0.000000,4231.538574,4239.230957,4227.436035,4227.436035,4176.025879,4215.641113,4207.563965,4215.769043,4203.205078,4215.000000,4228.461426,4242.563965,4278.589844,4235.128418,0.000000,1.000000,15.000000,,,,0.000000,4.000000,4.000000,4.000000,4.000000,4.000000,4.000000,4.000000,4.000000,4.000000,4.000000,4.000000,4.000000,4.000000,4.000000,100.000000,,,,,,,,,,,,,,,,,,,,,,,,,,,,
1649274991.364826,1649274991.386219,46.000000,0.000000,4243.333496,4245.769043,4232.820313,4230.128418,4186.794922,4213.205078,4200.641113,4208.333496,4196.666504,4216.410156,4229.487305,4247.692383,4273.717773,4239.871582,0.000000,1.000000,15.000000,,,,0.000000,4.000000,4.000000,4.000000,4.000000,4.000000,4.000000,4.000000,4.000000,4.000000,4.000000,4.000000,4.000000,4.000000,4.000000,100.000000,,,,,,,,,,,,,,,,,,,,,,,,,,,,
1649274991.372629,1649274991.394022,47.000000,0.000000,4251.922852,4250.128418,4244.102539,4232.820313,4211.794922,4204.487305,4196.410156,4200.512695,4204.102539,4215.641113,4230.897461,4253.077148,4277.307617,4242.051270,0.000000,1.000000,15.000000,,,,0.000000,4.000000,4.000000,4.000000,4.000000,4.000000,4.000000,4.000000,4.000000,4.000000,4.000000,4.000000,4.000000,4.000000,4.000000,100.000000,,,,,,,,,,,,,,,,,,,,,,,,,,,,
1649274991.380432,1649274991.401725,48.000000,0.000000,4247.692383,4247.948730,4239.871582,4231.153809,4208.077148,4206.282227,4208.717773,4201.922852,4204.487305,4213.589844,4225.128418,4251.282227,4278.589844,4241.538574,0.000000,1.000000,15.000000,,,,0.000000,4.000000,4.000000,4.000000,4.000000,4.000000,4.000000,4.000000,4.000000,4.000000,4.000000,4.000000,4.000000,4.000000,4.000000,100.000000,,,,,,,,,,,,,,,,,12.000000,0.000000,0.240101,0.558838,-0.480774,0.631592,0.954116,-0.354009,-0.092287,-32.898453,-109.611656,-1.046769
1649274991.388235,1649274991.409628,49.000000,0.000000,4242.820313,4257.563965,4232.820313,4233.461426,4200.769043,4222.051270,4214.102539,4209.743652,4204.230957,4230.256348,4236.794922,4250.384766,4286.538574,4248.974121,0.000000,1.000000,15.000000,,,,0.000000,4.000000,4.000000,4.000000,4.000000,4.000000,4.000000,4.000000,4.000000,4.000000,4.000000,4.000000,4.000000,4.000000,4.000000,100.000000,,,,,,,,,,,,,,,,,,,,,,,,,,,,
1649274991.396038,1649274991.417431,50.000000,0.000000,4237.820313,4260.897461,4233.205078,4232.307617,4214.230957,4222.307617,4198.846191,4215.641113,4214.487305,4250.128418,4248.205078,4251.153809,4296.794922,4245.512695,0.000000,1.000000,15.000000,,,,0.000000,4.000000,4.000000,4.000000,4.000000,4.000000,4.000000,4.000000,4.000000,4.000000,4.000000,4.000000,4.000000,4.000000,4.000000,100.000000,,,,,,,,,,,,,,,,,,,,,,,,,,,,
1649274991.403841,1649274991.425335,51.000000,0.000000,4230.769043,4250.384766,4231.153809,4226.794922,4212.179688,4212.436035,4189.615234,4214.871582,4213.846191,4247.948730,4238.589844,4245.641113,4296.025879,4234.102539,0.000000,1.000000,15.000000,,,,0.000000,4.000000,4.000000,4.000000,4.000000,4.000000,4.000000,4.000000,4.000000,4.000000,4.000000,4.000000,4.000000,4.000000,4.000000,100.000000,,,,,,,,,,,,,,,,,,,,,,,,,,,,
1649274991.411644,1649274991.433138,52.000000,0.000000,4231.282227,4254.615234,4228.333496,4228.846191,4196.410156,4217.051270,4198.077148,4219.102539,4221.282227,4243.461426,4230.128418,4240.769043,4295.128418,4235.897461,0.000000,1.000000,15.000000,,,,0.000000,4.000000,4.000000,4.000000,4.000000,4.000000,4.000000,4.000000,4.000000,4.000000,4.000000,4.000000,4.000000,4.000000,4.000000,100.000000,,,,,,,,,,,,,,,,,13.000000,0.000000,0.239765,0.559021,-0.480408,0.631836,0.943862,-0.349126,-0.084962,-33.496605,-108.714424,-0.448615
1649274991.419447,1649274991.441041,53.000000,0.000000,4233.717773,4263.077148,4231.410156,4231.922852,4206.153809,4220.512695,4200.128418,4221.538574,4233.333496,4247.051270,4229.230957,4240.256348,4293.974121,4235.128418,0.000000,1.000000,15.000000,,,,0.000000,4.000000,4.000000,4.000000,4.000000,4.000000,4.000000,4.000000,4.000000,4.000000,4.000000,4.000000,4.000000,4.000000,4.000000,100.000000,,,,,,,,,,,,,,,,,,,,,,,,,,,,
1649274991.427250,1649274991.448844,54.000000,0.000000,4232.563965,4260.384766,4232.179688,4229.743652,4225.256348,4217.820313,4200.384766,4203.974121,4208.974121,4240.897461,4229.743652,4236.538574,4286.410156,4225.128418,0.000000,1.000000,15.000000,,,,0.000000,4.000000,4.000000,4.000000,4.000000,4.000000,4.000000,4.000000,4.000000,4.000000,4.000000,4.000000,4.000000,4.000000,4.000000,100.000000,,,,,,,,,,,,,,,,,,,,,,,,,,,,
1649274991.435053,1649274991.456747,55.000000,0.000000,4232.948730,4259.102539,4230.000000,4233.333496,4213.333496,4225.641113,4216.025879,4192.948730,4192.051270,4224.358887,4228.461426,4231.538574,4277.820313,4220.384766,0.000000,1.000000,15.000000,,,,0.000000,4.000000,4.000000,4.000000,4.000000,4.000000,4.000000,4.000000,4.000000,4.000000,4.000000,4.000000,4.000000,4.000000,4.000000,100.000000,,,,,,,,,,,,,,,,,,,,,,,,,,,,
1649274991.442856,1649274991.464650,56.000000,0.000000,4230.897461,4260.256348,4230.512695,4232.820313,4199.102539,4227.051270,4220.512695,4205.000000,4208.333496,4221.922852,4217.307617,4235.384766,4268.205078,4221.153809,0.000000,1.000000,15.000000,,,,0.000000,4.000000,4.000000,4.000000,4.000000,4.000000,4.000000,4.000000,4.000000,4.000000,4.000000,4.000000,4.000000,4.000000,4.000000,100.000000,,,,,,,,,,,,,,,,,14.000000,0.000000,0.239024,0.559448,-0.479797,0.632202,0.947280,-0.343755,-0.084962,-33.945221,-107.667656,-0.448615
1649274991.450660,1649274991.472453,57.000000,0.000000,4228.077148,4247.307617,4231.538574,4221.538574,4201.410156,4218.205078,4214.743652,4219.102539,4209.615234,4229.871582,4207.692383,4246.153809,4261.666504,4223.846191,0.000000,1.000000,15.000000,,,,0.000000,4.000000,4.000000,4.000000,4.000000,4.000000,4.000000,4.000000,4.000000,4.000000,4.000000,4.000000,4.000000,4.000000,4.000000,100.000000,,,,,,,,,,,,,,,,,,,,,,,,,,,,
1649274991.458463,1649274991.480257,58.000000,0.000000,4228.974121,4232.051270,4226.282227,4211.410156,4193.846191,4218.077148,4223.717773,4225.769043,4200.512695,4228.717773,4214.102539,4244.487305,4266.025879,4223.717773,0.000000,1.000000,15.000000,,,,0.000000,4.000000,4.000000,4.000000,4.000000,4.000000,4.000000,4.000000,4.000000,4.000000,4.000000,4.000000,4.000000,4.000000,4.000000,100.000000,,,,,,,,,,,,,,,,,,,,,,,,,,,,
1649274991.466266,1649274991.488160,59.000000,0.000000,4228.333496,4238.205078,4216.922852,4210.000000,4186.410156,4218.333496,4217.307617,4220.384766,4210.384766,4233.333496,4222.563965,4231.922852,4278.974121,4217.307617,0.000000,1.000000,15.000000,,,,0.000000,4.000000,4.000000,4.000000,4.000000,4.000000,4.000000,4.000000,4.000000,4.000000,4.000000,4.000000,4.000000,4.000000,4.000000,100.000000,,,,,,,,,,,,,,,,,,,,,,,,,,,,
1649274991.474069,1649274991.496063,60.000000,0.000000,4226.922852,4250.128418,4219.871582,4222.563965,4205.641113,4213.974121,4196.794922,4216.538574,4222.436035,4254.487305,4234.102539,4232.820313,4297.051270,4213.846191,0.000000,1.000000,15.000000,,,,0.000000,4.000000,4.000000,4.000000,4.000000,4.000000,4.000000,4.000000,4.000000,4.000000,4.000000,4.000000,4.000000,4.000000,4.000000,100.000000,,,,,,,,,,,,,,,,,15.000000,0.000000,0.238648,0.559753,-0.479065,0.632629,0.950210,-0.351080,-0.090822,-34.692913,-107.667656,-0.897231
1649274991.481872,1649274991.503866,61.000000,0.000000,4228.333496,4251.153809,4230.000000,4231.410156,4221.666504,4216.666504,4206.794922,4234.230957,4234.102539,4261.794922,4246.282227,4245.128418,4306.153809,4216.410156,0.000000,1.000000,15.000000,,,,0.000000,4.000000,4.000000,4.000000,4.000000,4.000000,4.000000,4.000000,4.000000,4.000000,4.000000,4.000000,4.000000,4.000000,4.000000,100.000000,,,,,,,,,,,,,,,,,,,,,,,,,,,,
1649274991.489675,1649274991.511669,62.000000,0.000000,4227.820313,4253.077148,4230.641113,4222.820313,4210.000000,4218.974121,4221.410156,4235.769043,4235.897461,4246.025879,4242.051270,4248.205078,4298.974121,4219.743652,0.000000,1.000000,15.000000,,,,0.000000,4.000000,4.000000,4.000000,4.000000,4.000000,4.000000,4.000000,4.000000,4.000000,4.000000,4.000000,4.000000,4.000000,4.000000,100.000000,,,,,,,,,,,,,,,,,,,,,,,,,,,,
1649274991.497478,1649274991.519572,63.000000,0.000000,4230.000000,4257.820313,4230.641113,4221.794922,4199.871582,4213.333496,4213.589844,4212.820313,4216.538574,4241.153809,4231.410156,4244.615234,4292.307617,4224.102539,0.000000,1.000000,15.000000,,,,0.000000,4.000000,4.000000,4.000000,4.000000,4.000000,4.000000,4.000000,4.000000,4.000000,4.000000,4.000000,4.000000,4.000000,4.000000,100.000000,,,,,,,,,,,,,,,,,,,,,,,,,,,,
1649274991.505281,1649274991.527475,64.000000,0.000000,4237.051270,4252.307617,4237.307617,4235.256348,4200.128418,4214.871582,4211.410156,4215.384766,4207.436035,4249.358887,4227.051270,4247.692383,4295.128418,4222.820313,3349.000000,1.000000,15.000000,,,,0.000000,4.000000,4.000000,4.000000,4.000000,4.000000,4.000000,4.000000,4.000000,4.000000,4.000000,4.000000,4.000000,4.000000,4.000000,100.000000,,,,,,,,,,,,,,,,,16.000000,0.000000,0.238551,0.559937,-0.478577,0.632874,0.952163,-0.350591,-0.098146,-33.347065,-106.770432,-2.093538
1649274991.513084,1649274991.535279,65.000000,0.000000,4233.717773,4246.410156,4235.000000,4231.282227,4199.743652,4218.077148,4220.000000,4231.410156,4213.717773,4237.820313,4225.256348,4247.436035,4293.333496,4215.128418,3561.000000,1.000000,15.000000,,,,0.000000,4.000000,4.000000,4.000000,4.000000,4.000000,4.000000,4.000000,4.000000,4.000000,4.000000,4.000000,4.000000,4.000000,4.000000,100.000000,,,,,,,,,,,,,,,,,,,,,,,,,,,,
1649274991.520887,1649274991.543082,66.000000,0.000000,4231.666504,4256.538574,4232.307617,4224.358887,4203.461426,4216.282227,4217.820313,4233.205078,4222.692383,4224.615234,4229.102539,4245.384766,4293.077148,4224.102539,3548.000000,1.000000,15.000000,,,,0.000000,4.000000,4.000000,4.000000,4.000000,4.000000,4.000000,4.000000,4.000000,4.000000,4.000000,4.000000,4.000000,4.000000,4.000000,100.000000,,,,,,,,,,,,,,,,,,,,,,,,,,,,
1649274991.528690,1649274991.550985,67.000000,0.000000,4241.538574,4263.461426,4241.922852,4235.128418,4206.025879,4223.205078,4214.743652,4237.948730,4234.871582,4240.384766,4239.871582,4254.358887,4301.794922,4237.307617,3610.000000,1.000000,15.000000,,,,0.000000,4.000000,4.000000,4.000000,4.000000,4.000000,4.000000,4.000000,4.000000,4.000000,4.000000,4.000000,4.000000,4.000000,4.000000,100.000000,,,,,,,,,,,,,,,,,,,,,,,,,,,,
1649274991.536493,1649274991.558888,68.000000,0.000000,4244.743652,4261.538574,4246.410156,4238.205078,4213.846191,4235.641113,4217.820313,4237.051270,4230.897461,4258.717773,4245.000000,4262.051270,4306.153809,4234.358887,3596.000000,1.000000,15.000000,,,,0.000000,4.000000,4.000000,4.000000,4.000000,4.000000,4.000000,4.000000,4.000000,4.000000,4.000000,4.000000,4.000000,4.000000,4.000000,100.000000,,,,,,,,,,,,,,,,,17.000000,0.000000,0.238452,0.560120,-0.478088,0.633118,0.939467,-0.344732,-0.085939,-34.094757,-108.564888,-2.093538
1649274991.544296,1649274991.566791,69.000000,0.000000,4246.538574,4272.179688,4246.922852,4238.717773,4234.230957,4230.897461,4215.128418,4233.205078,4234.743652,4263.077148,4248.333496,4265.128418,4320.512695,4238.333496,3613.000000,1.000000,15.000000,,,,0.000000,4.000000,4.000000,4.000000,4.000000,4.000000,4.000000,4.000000,4.000000,4.000000,4.000000,4.000000,4.000000,4.000000,4.000000,100.000000,,,,,,,,,,,,,,,,,,,,,,,,,,,,
1649274991.552100,1649274991.574594,70.000000,0.000000,4249.230957,4283.461426,4246.794922,4246.153809,4235.000000,4218.846191,4213.205078,4240.000000,4254.102539,4265.128418,4255.512695,4264.358887,4331.538574,4245.000000,3633.000000,1.000000,15.000000,,,,0.000000,4.000000,4.000000,4.000000,4.000000,4.000000,4.000000,4.000000,4.000000,4.000000,4.000000,4.000000,4.000000,4.000000,4.000000,100.000000,,,,,,,,,,,,,,,,,,,,,,,,,,,,
1649274991.559903,1649274991.582398,71.000000,0.000000,4235.128418,4270.897461,4237.051270,4244.871582,4202.948730,4216.410156,4214.230957,4225.641113,4232.820313,4251.538574,4242.948730,4250.256348,4306.153809,4224.871582,3605.000000,1.000000,15.000000,,,,0.000000,4.000000,4.000000,4.000000,4.000000,4.000000,4.000000,4.000000,4.000000,4.000000,4.000000,4.000000,4.000000,4.000000,4.000000,100.000000,,,,,,,,,,,,,,,,,,,,,,,,,,,,
1649274991.567706,1649274991.590301,72.000000,0.000000,4222.820313,4249.358887,4227.948730,4228.974121,4189.487305,4217.307617,4214.102539,4201.153809,4194.358887,4225.384766,4216.282227,4228.333496,4278.205078,4196.282227,3551.000000,1.000000,15.000000,,,,0.000000,4.000000,4.000000,4.000000,4.000000,4.000000,4.000000,4.000000,4.000000,4.000000,4.000000,4.000000,4.000000,4.000000,4.000000,100.000000,,,,,,,,,,,,,,,,,18.000000,0.000000,0.239042,0.560303,-0.477417,0.633240,0.949722,-0.340337,-0.095705,-36.786449,-107.518120,-1.794461
1649274991.575509,1649274991.598204,73.000000,0.000000,4227.692383,4243.717773,4226.922852,4218.461426,4211.282227,4221.794922,4217.692383,4212.051270,4207.948730,4226.794922,4213.205078,4223.589844,4288.974121,4194.102539,3686.000000,1.000000,15.000000,,,,0.000000,4.000000,4.000000,4.000000,4.000000,4.000000,4.000000,4.000000,4.000000,4.000000,4.000000,4.000000,4.000000,4.000000,4.000000,100.000000,,,,,,,,,,,,,,,,,,,,,,,,,,,,
1649274991.583312,1649274991.606007,74.000000,0.000000,4230.769043,4252.948730,4231.025879,4225.769043,4215.512695,4230.384766,4225.897461,4232.820313,4231.666504,4254.743652,4233.846191,4235.256348,4310.512695,4209.487305,3611.000000,1.000000,15.000000,,,,0.000000,4.000000,4.000000,4.000000,4.000000,4.000000,4.000000,4.000000,4.000000,4.000000,4.000000,4.000000,4.000000,4.000000,4.000000,100.000000,,,,,,,,,,,,,,,,,,,,,,,,,,,,
1649274991.591115,1649274991.613810,75.000000,0.000000,4235.512695,4263.077148,4240.897461,4230.641113,4198.461426,4229.358887,4233.974121,4239.615234,4234.487305,4262.692383,4248.077148,4246.922852,4317.436035,4221.025879,3607.000000,1.000000,15.000000,,,,0.000000,4.000000,4.000000,4.000000,4.000000,4.000000,4.000000,4.000000,4.000000,4.000000,4.000000,4.000000,4.000000,4.000000,4.000000,100.000000,,,,,,,,,,,,,,,,,,,,,,,,,,,,
1649274991.598918,1649274991.621713,76.000000,1.000000,4237.362793,4266.575195,4240.695801,4231.538574,4201.776367,4229.505371,4231.648438,4239.047852,4234.560547,4264.340820,4250.000000,4248.205078,4321.776367,4224.633789,3611.000000,1.000000,15.000000,,,,0.000000,4.000000,4.000000,4.000000,4.000000,4.000000,4.000000,4.000000,4.000000,4.000000,4.000000,4.000000,4.000000,4.000000,4.000000,100.000000,,,,,,,,,,,,,,,,,19.000000,1.000000,0.239035,0.560791,-0.476440,0.633545,0.954849,-0.338384,-0.086427,-34.618141,-107.293816,-1.943999
1649274991.606721,1649274991.629516,77.000000,1.000000,4239.212402,4270.073242,4240.494629,4232.436035,4205.091797,4229.651855,4229.322266,4238.479980,4234.633789,4265.988770,4251.922852,4249.487305,4326.117188,4228.241699,3521.000000,1.000000,15.000000,,,,0.000000,4.000000,4.000000,4.000000,4.000000,4.000000,4.000000,4.000000,4.000000,4.000000,4.000000,4.000000,4.000000,4.000000,4.000000,100.000000,,,,,,,,,,,,,,,,,,,,,,,,,,,,
1649274991.614524,1649274991.637320,78.000000,1.000000,4241.062500,4273.571289,4240.292969,4233.333496,4208.406738,4229.798340,4226.996094,4237.912109,4234.707031,4267.637207,4253.846191,4250.769043,4330.458008,4231.849609,3627.000000,1.000000,15.000000,,,,0.000000,4.000000,4.000000,4.000000,4.000000,4.000000,4.000000,4.000000,4.000000,4.000000,4.000000,4.000000,4.000000,4.000000,4.000000,100.000000,,,,,,,,,,,,,,,,,,,,,,,,,,,,
1649274991.622327,1649274991.645123,79.000000,1.000000,4242.912109,4277.069824,4240.091797,4234.230957,4211.721680,4229.944824,4224.670410,4237.344238,4234.780273,4269.285645,4255.769043,4252.051270,4334.798340,4235.458008,3626.000000,1.000000,15.000000,,,,0.000000,4.000000,4.000000,4.000000,4.000000,4.000000,4.000000,4.000000,4.000000,4.000000,4.000000,4.000000,4.000000,4.000000,4.000000,100.000000,,,,,,,,,,,,,,,,,,,,,,,,,,,,
1649274991.630130,1649274991.652926,80.000000,1.000000,4244.761719,4280.567871,4239.890137,4235.128418,4215.036621,4230.091797,4222.344238,4236.776367,4234.853516,4270.934082,4257.692383,4253.333496,4339.139160,4239.065918,3609.857178,1.000000,15.000000,,,,0.000000,4.000000,4.000000,4.000000,4.000000,4.000000,4.000000,4.000000,4.000000,4.000000,4.000000,4.000000,4.000000,4.000000,4.000000,100.000000,,,,,,,,,,,,,,,,,20.000000,0.000000,0.239027,0.561279,-0.475464,0.633850,0.959976,-0.336431,-0.077150,-32.449837,-107.069504,-2.093538
1649274991.637933,1649274991.660729,81.000000,1.000000,4246.611816,4284.065918,4239.688477,4236.025879,4218.351563,4230.238281,4220.018555,4236.208984,4234.926758,4272.582520,4259.615234,4254.615234,4343.479980,4242.673828,3610.428467,1.000000,15.000000,,,,0.000000,4.000000,4.000000,4.000000,4.000000,4.000000,4.000000,4.000000,4.000000,4.000000,4.000000,4.000000,4.000000,4.000000,4.000000,100.000000,,,,,,,,,,,,,,,,,,,,,,,,,,,,
1649274991.645736,1649274991.668532,82.000000,0.000000,4248.461426,4287.563965,4239.487305,4236.922852,4221.666504,4230.384766,4217.692383,4235.641113,4235.000000,4274.230957,4261.538574,4255.897461,4347.820313,4246.282227,3611.000000,1.000000,15.000000,,,,0.000000,4.000000,4.000000,4.000000,4.000000,4.000000,4.000000,4.000000,4.000000,4.000000,4.000000,4.000000,4.000000,4.000000,4.000000,100.000000,,,,,,,,,,,,,,,,,,,,,,,,,,,,
1649274991.653540,1649274991.676235,83.000000,0.000000,4246.538574,4286.538574,4240.128418,4231.922852,4222.179688,4231.666504,4228.333496,4229.102539,4226.410156,4263.077148,4268.333496,4261.794922,4358.589844,4244.230957,3607.000000,1.000000,15.000000,,,,0.000000,4.000000,4.000000,4.000000,4.000000,4.000000,4.000000,4.000000,4.000000,4.000000,4.000000,4.000000,4.000000,4.000000,4.000000,100.000000,,,,,,,,,,,,,,,,,,,,,,,,,,,,
1649274991.661343,1649274991.684038,84.000000,0.000000,4247.563965,4277.051270,4245.897461,4228.589844,4217.948730,4233.589844,4237.307617,4236.153809,4238.461426,4262.436035,4269.230957,4271.922852,4357.692383,4249.615234,3585.000000,1.000000,15.000000,,,,0.000000,4.000000,4.000000,4.000000,4.000000,4.000000,4.000000,4.000000,4.000000,4.000000,4.000000,4.000000,4.000000,4.000000,4.000000,100.000000,,,,,,,,,,,,,,,,,21.000000,0.000000,0.238412,0.562073,-0.474182,0.634338,0.955581,-0.344244,-0.087404,-33.496605,-107.219040,-0.897231
1649274991.669145,1649274991.691742,85.000000,0.000000,4245.897461,4274.358887,4241.666504,4225.897461,4207.692383,4230.897461,4235.641113,4221.410156,4229.102539,4262.948730,4262.179688,4274.487305,4348.846191,4256.922852,3502.000000,1.000000,15.000000,,,,0.000000,4.000000,4.000000,4.000000,4.000000,4.000000,4.000000,4.000000,4.000000,4.000000,4.000000,4.000000,4.000000,4.000000,4.000000,100.000000,,,,,,,,,,,,,,,,,,,,,,,,,,,,
1649274991.676949,1649274991.699544,86.000000,0.000000,4245.256348,4283.974121,4237.820313,4226.666504,4212.948730,4226.153809,4227.948730,4205.769043,4210.384766,4246.410156,4249.358887,4261.794922,4340.000000,4251.794922,3611.000000,1.000000,15.000000,,,,0.000000,4.000000,4.000000,4.000000,4.000000,4.000000,4.000000,4.000000,4.000000,4.000000,4.000000,4.000000,4.000000,4.000000,4.000000,100.000000,,,,,,,,,,,,,,,,,,,,,,,,,,,,
1649274991.684752,1649274991.707248,87.000000,0.000000,4254.743652,4300.256348,4243.846191,4233.589844,4230.512695,4232.436035,4227.820313,4220.256348,4218.846191,4231.025879,4249.615234,4259.743652,4345.256348,4256.153809,3607.000000,1.000000,15.000000,,,,0.000000,4.000000,4.000000,4.000000,4.000000,4.000000,4.000000,4.000000,4.000000,4.000000,4.000000,4.000000,4.000000,4.000000,4.000000,100.000000,,,,,,,,,,,,,,,,,,,,,,,,,,,,
1649274991.692555,1649274991.715051,88.000000,0.000000,4266.153809,4319.358887,4250.641113,4243.717773,4238.717773,4235.512695,4222.051270,4217.948730,4215.000000,4223.205078,4252.436035,4267.820313,4356.666504,4267.179688,3585.000000,1.000000,15.000000,,,,0.000000,4.000000,4.000000,4.000000,4.000000,4.000000,4.000000,4.000000,4.000000,4.000000,4.000000,4.000000,4.000000,4.000000,4.000000,100.000000,,,,,,,,,,,,,,,,,22.000000,0.000000,0.237945,0.562561,-0.473511,0.634583,0.949233,-0.334966,-0.076173,-32.449837,-107.817200,-1.345846
1649274991.700358,1649274991.722753,89.000000,0.000000,4272.051270,4334.615234,4255.000000,4249.102539,4227.692383,4219.487305,4206.153809,4200.000000,4192.307617,4216.153809,4248.205078,4264.615234,4360.641113,4264.871582,3502.000000,1.000000,15.000000,,,,0.000000,4.000000,4.000000,4.000000,4.000000,4.000000,4.000000,4.000000,4.000000,4.000000,4.000000,4.000000,4.000000,4.000000,4.000000,100.000000,,,,,,,,,,,,,,,,,,,,,,,,,,,,
1649274991.708161,1649274991.730556,90.000000,0.000000,4278.846191,4341.410156,4259.743652,4249.230957,4200.256348,4206.282227,4211.794922,4215.256348,4195.769043,4218.461426,4253.333496,4262.563965,4364.487305,4272.948730,3611.000000,1.000000,15.000000,,,,0.000000,4.000000,4.000000,4.000000,4.000000,4.000000,4.000000,4.000000,4.000000,4.000000,4.000000,4.000000,4.000000,4.000000,4.000000,100.000000,,,,,,,,,,,,,,,,,,,,,,,,,,,,
1649274991.715964,1649274991.738259,91.000000,0.000000,4285.897461,4346.282227,4259.102539,4248.077148,4195.897461,4220.769043,4237.179688,4235.897461,4214.102539,4232.948730,4260.641113,4275.256348,4374.743652,4295.384766,3607.000000,1.000000,15.000000,,,,0.000000,4.000000,4.000000,4.000000,4.000000,4.000000,4.000000,4.000000,4.000000,4.000000,4.000000,4.000000,4.000000,4.000000,4.000000,100.000000,,,,,,,,,,,,,,,,,,,,,,,,,,,,
1649274991.723767,1649274991.746062,92.000000,0.000000,4293.461426,4354.871582,4262.563965,4248.846191,4224.615234,4235.128418,4239.615234,4235.641113,4221.666504,4254.102539,4266.410156,4291.922852,4387.307617,4304.102539,3585.000000,1.000000,15.000000,,,,0.000000,4.000000,4.000000,4.000000,4.000000,4.000000,4.000000,4.000000,4.000000,4.000000,4.000000,4.000000,4.000000,4.000000,4.000000,100.000000,,,,,,,,,,,,,,,,,23.000000,0.000000,0.236998,0.563416,-0.471985,0.635315,0.951675,-0.325689,-0.090822,-34.991989,-108.714424,-0.448615
1649274991.731570,1649274991.753764,93.000000,0.000000,4299.871582,4345.641113,4270.256348,4241.538574,4209.358887,4222.820313,4231.153809,4243.333496,4225.256348,4252.179688,4267.563965,4294.743652,4377.948730,4304.615234,3502.000000,1.000000,15.000000,,,,0.000000,4.000000,4.000000,4.000000,4.000000,4.000000,4.000000,4.000000,4.000000,4.000000,4.000000,4.000000,4.000000,4.000000,4.000000,100.000000,,,,,,,,,,,,,,,,,,,,,,,,,,,,
1649274991.739373,1649274991.761567,94.000000,0.000000,4307.820313,4336.538574,4274.615234,4241.538574,4171.922852,4207.563965,4231.538574,4238.205078,4215.641113,4231.153809,4247.563965,4285.641113,4352.051270,4315.128418,3611.000000,1.000000,15.000000,,,,0.000000,4.000000,4.000000,4.000000,4.000000,4.000000,4.000000,4.000000,4.000000,4.000000,4.000000,4.000000,4.000000,4.000000,4.000000,100.000000,,,,,,,,,,,,,,,,,,,,,,,,,,,,
1649274991.747176,1649274991.769270,95.000000,0.000000,4328.461426,4372.948730,4285.128418,4261.666504,4205.384766,4215.769043,4221.794922,4205.641113,4198.205078,4237.051270,4239.743652,4284.487305,4351.153809,4321.922852,3607.000000,1.000000,15.000000,,,,0.000000,4.000000,4.000000,4.000000,4.000000,4.000000,4.000000,4.000000,4.000000,4.000000,4.000000,4.000000,4.000000,4.000000,4.000000,100.000000,,,,,,,,,,,,,,,,,,,,,,,,,,,,
1649274991.754979,1649274991.777073,96.000000,0.000000,4334.358887,4406.666504,4289.871582,4265.897461,4246.410156,4219.358887,4209.230957,4200.641113,4199.871582,4249.615234,4250.769043,4280.384766,4357.179688,4302.307617,3585.000000,1.000000,15.000000,,,,0.000000,4.000000,4.000000,4.000000,4.000000,4.000000,4.000000,4.000000,4.000000,4.000000,4.000000,4.000000,4.000000,4.000000,4.000000,100.000000,,,,,,,,,,,,,,,,,24.000000,0.000000,0.235331,0.564270,-0.470398,0.636353,0.948745,-0.331548,-0.087404,-32.898453,-107.817200,-1.794461
1649274991.762782,1649274991.784776,97.000000,0.000000,4312.948730,4392.051270,4278.846191,4253.846191,4210.000000,4199.743652,4211.153809,4223.717773,4207.820313,4228.589844,4232.179688,4262.179688,4330.769043,4271.794922,3502.000000,1.000000,15.000000,,,,0.000000,4.000000,4.000000,4.000000,4.000000,4.000000,4.000000,4.000000,4.000000,4.000000,4.000000,4.000000,4.000000,4.000000,4.000000,100.000000,,,,,,,,,,,,,,,,,,,,,,,,,,,,
1649274991.770585,1649274991.792578,98.000000,0.000000,4308.589844,4371.794922,4274.102539,4258.333496,4186.922852,4195.000000,4216.153809,4227.051270,4197.436035,4212.948730,4205.641113,4253.717773,4305.000000,4262.307617,3611.000000,1.000000,15.000000,,,,0.000000,4.000000,4.000000,4.000000,4.000000,4.000000,4.000000,4.000000,4.000000,4.000000,4.000000,4.000000,4.000000,4.000000,4.000000,100.000000,,,,,,,,,,,,,,,,,,,,,,,,,,,,
1649274991.778389,1649274991.800281,99.000000,0.000000,4319.358887,4384.102539,4278.205078,4266.538574,4224.871582,4217.436035,4215.256348,4209.102539,4184.358887,4219.871582,4215.384766,4258.589844,4318.589844,4260.897461,3607.000000,1.000000,15.000000,,,,0.000000,4.000000,4.000000,4.000000,4.000000,4.000000,4.000000,4.000000,4.000000,4.000000,4.000000,4.000000,4.000000,4.000000,4.000000,100.000000,,,,,,,,,,,,,,,,,,,,,,,,,,,,
1649274991.786192,1649274991.807984,100.000000,0.000000,4313.589844,4411.282227,4277.948730,4267.820313,4237.307617,4227.692383,4210.897461,4197.179688,4184.615234,4215.769043,4225.897461,4262.820313,4328.846191,4258.717773,3585.000000,1.000000,15.000000,,,,0.000000,4.000000,4.000000,4.000000,4.000000,4.000000,4.000000,4.000000,4.000000,4.000000,4.000000,4.000000,4.000000,4.000000,4.000000,100.000000,,,,,,,,,,,,,,,,,25.000000,0.000000,0.233246,0.565063,-0.468994,0.637451,0.956558,-0.342290,-0.082521,-34.543373,-107.817200,-0.299077
1649274991.793995,1649274991.815787,101.000000,0.000000,4308.589844,4417.051270,4277.179688,4279.102539,4228.589844,4208.077148,4203.974121,4189.358887,4177.179688,4205.256348,4215.769043,4271.794922,4307.436035,4272.948730,3502.000000,1.000000,15.000000,,,,0.000000,4.000000,4.000000,4.000000,4.000000,4.000000,4.000000,4.000000,4.000000,4.000000,4.000000,4.000000,4.000000,4.000000,4.000000,100.000000,,,,,,,,,,,,,,,,,,,,,,,,,,,,
1649274991.801798,1649274991.823490,102.000000,0.000000,4313.589844,4404.743652,4280.641113,4280.769043,4241.282227,4196.922852,4201.538574,4181.538574,4165.256348,4202.307617,4217.179688,4284.102539,4305.000000,4283.974121,3611.000000,1.000000,15.000000,,,,0.000000,4.000000,4.000000,4.000000,4.000000,4.000000,4.000000,4.000000,4.000000,4.000000,4.000000,4.000000,4.000000,4.000000,4.000000,100.000000,,,,,,,,,,,,,,,,,,,,,,,,,,,,
1649274991.809601,1649274991.831293,103.000000,0.000000,4312.307617,4394.743652,4282.436035,4265.897461,4224.487305,4212.051270,4207.820313,4188.589844,4170.641113,4202.179688,4221.922852,4283.589844,4314.358887,4272.948730,3607.000000,1.000000,15.000000,,,,0.000000,4.000000,4.000000,4.000000,4.000000,4.000000,4.000000,4.000000,4.000000,4.000000,4.000000,4.000000,4.000000,4.000000,4.000000,100.000000,,,,,,,,,,,,,,,,,,,,,,,,,,,,
1649274991.817404,1649274991.839096,104.000000,0.000000,4312.948730,4391.153809,4281.410156,4264.615234,4196.410156,4223.077148,4218.974121,4211.025879,4190.000000,4203.589844,4214.743652,4270.384766,4300.512695,4252.692383,3585.000000,1.000000,15.000000,,,,0.000000,4.000000,4.000000,4.000000,4.000000,4.000000,4.000000,4.000000,4.000000,4.000000,4.000000,4.000000,4.000000,4.000000,4.000000,100.000000,,,,,,,,,,,,,,,,,26.000000,0.000000,0.231483,0.565491,-0.467773,0.638611,0.951186,-0.355962,-0.074708,-34.842449,-107.069504,1.046769
1649274991.825207,1649274991.846799,105.000000,0.000000,4309.358887,4385.769043,4280.000000,4261.794922,4220.512695,4222.820313,4228.846191,4222.692383,4205.128418,4200.128418,4209.743652,4258.974121,4294.102539,4243.077148,3502.000000,1.000000,15.000000,,,,0.000000,4.000000,4.000000,4.000000,4.000000,4.000000,4.000000,4.000000,4.000000,4.000000,4.000000,4.000000,4.000000,4.000000,4.000000,100.000000,,,,,,,,,,,,,,,,,,,,,,,,,,,,
1649274991.833010,1649274991.854502,106.000000,0.000000,4302.820313,4383.974121,4283.077148,4256.922852,4245.256348,4222.179688,4225.256348,4216.922852,4204.230957,4221.025879,4217.948730,4268.846191,4307.436035,4260.000000,3611.000000,1.000000,15.000000,,,,0.000000,4.000000,4.000000,4.000000,4.000000,4.000000,4.000000,4.000000,4.000000,4.000000,4.000000,4.000000,4.000000,4.000000,4.000000,100.000000,,,,,,,,,,,,,,,,,,,,,,,,,,,,
1649274991.840813,1649274991.862305,107.000000,0.000000,4294.358887,4370.128418,4272.307617,4252.051270,4210.256348,4200.769043,4197.307617,4198.333496,4183.333496,4230.000000,4212.563965,4265.384766,4293.461426,4254.230957,3607.000000,1.000000,15.000000,,,,0.000000,4.000000,4.000000,4.000000,4.000000,4.000000,4.000000,4.000000,4.000000,4.000000,4.000000,4.000000,4.000000,4.000000,4.000000,100.000000,,,,,,,,,,,,,,,,,,,,,,,,,,,,
1649274991.848616,1649274991.870108,108.000000,0.000000,4253.846191,4324.743652,4230.384766,4216.410156,4167.307617,4161.794922,4161.666504,4161.922852,4154.743652,4179.871582,4171.666504,4217.820313,4254.487305,4194.615234,3585.000000,1.000000,15.000000,,,,0.000000,4.000000,4.000000,4.000000,4.000000,4.000000,4.000000,4.000000,4.000000,4.000000,4.000000,4.000000,4.000000,4.000000,4.000000,100.000000,0.976563,83.333336,4.000000,4.000000,4.000000,4.000000,3.000000,4.000000,4.000000,4.000000,4.000000,4.000000,4.000000,4.000000,3.000000,4.000000,27.000000,0.000000,0.230047,0.565918,-0.466797,0.639465,0.948257,-0.363287,-0.072267,-33.347065,-108.564888,-2.093538
1649274991.856419,1649274991.877811,109.000000,0.000000,4201.666504,4288.333496,4195.128418,4176.794922,4163.846191,4151.538574,4145.897461,4133.205078,4137.179688,4142.692383,4139.102539,4178.846191,4239.743652,4151.922852,3502.000000,1.000000,15.000000,,,,0.000000,4.000000,4.000000,4.000000,4.000000,4.000000,4.000000,4.000000,4.000000,4.000000,4.000000,4.000000,4.000000,4.000000,4.000000,100.000000,,,,,,,,,,,,,,,,,,,,,,,,,,,,
1649274991.864222,1649274991.885514,110.000000,0.000000,4195.000000,4288.077148,4194.871582,4175.769043,4166.410156,4156.538574,4144.743652,4137.179688,4134.102539,4153.077148,4147.051270,4183.974121,4256.794922,4167.179688,3611.000000,1.000000,15.000000,,,,0.000000,4.000000,4.000000,4.000000,4.000000,4.000000,4.000000,4.000000,4.000000,4.000000,4.000000,4.000000,4.000000,4.000000,4.000000,100.000000,,,,,,,,,,,,,,,,,,,,,,,,,,,,
1649274991.872025,1649274991.893317,111.000000,0.000000,4212.820313,4294.230957,4202.563965,4190.897461,4159.230957,4150.512695,4136.538574,4146.153809,4136.153809,4152.307617,4167.051270,4195.384766,4276.153809,4182.436035,3607.000000,1.000000,15.000000,,,,0.000000,4.000000,4.000000,4.000000,4.000000,4.000000,4.000000,4.000000,4.000000,4.000000,4.000000,4.000000,4.000000,4.000000,4.000000,100.000000,,,,,,,,,,,,,,,,,,,,,,,,,,,,
1649274991.879829,1649274991.901020,112.000000,0.000000,4208.077148,4286.410156,4198.333496,4190.512695,4154.615234,4154.743652,4131.025879,4148.846191,4133.717773,4143.717773,4167.051270,4191.282227,4283.205078,4167.692383,3585.000000,1.000000,15.000000,,,,0.000000,4.000000,4.000000,4.000000,4.000000,4.000000,4.000000,4.000000,4.000000,4.000000,4.000000,4.000000,4.000000,4.000000,4.000000,100.000000,,,,,,,,,,,,,,,,,28.000000,0.000000,0.229113,0.566223,-0.465881,0.640198,0.955093,-0.359869,-0.075196,-35.291065,-107.069504,-1.794461
1649274991.887632,1649274991.908823,113.000000,0.000000,4192.820313,4274.102539,4189.743652,4182.820313,4155.769043,4162.692383,4147.820313,4163.205078,4138.589844,4153.974121,4151.025879,4181.794922,4281.025879,4154.230957,3502.000000,1.000000,15.000000,,,,0.000000,4.000000,4.000000,4.000000,4.000000,4.000000,4.000000,4.000000,4.000000,4.000000,4.000000,4.000000,4.000000,4.000000,4.000000,100.000000,,,,,,,,,,,,,,,,,,,,,,,,,,,,
1649274991.895435,1649274991.916526,114.000000,0.000000,4187.179688,4263.589844,4186.666504,4176.794922,4159.615234,4158.846191,4172.051270,4172.563965,4150.769043,4153.974121,4136.153809,4172.948730,4272.820313,4148.589844,3611.000000,1.000000,15.000000,,,,0.000000,4.000000,4.000000,4.000000,4.000000,4.000000,4.000000,4.000000,4.000000,4.000000,4.000000,4.000000,4.000000,4.000000,4.000000,100.000000,,,,,,,,,,,,,,,,,,,,,,,,,,,,
1649274991.903238,1649274991.924328,115.000000,0.000000,4196.282227,4268.333496,4195.128418,4176.538574,4160.256348,4159.615234,4171.025879,4162.307617,4152.179688,4151.025879,4130.897461,4173.846191,4265.256348,4148.077148,3607.000000,1.000000,15.000000,,,,0.000000,4.000000,4.000000,4.000000,4.000000,4.000000,4.000000,4.000000,4.000000,4.000000,4.000000,4.000000,4.000000,4.000000,4.000000,100.000000,,,,,,,,,,,,,,,,,,,,,,,,,,,,
1649274991.911041,1649274991.932031,116.000000,0.000000,4214.487305,4296.410156,4207.051270,4186.666504,4175.512695,4170.512695,4158.333496,4152.436035,4142.948730,4162.948730,4140.384766,4190.000000,4281.282227,4158.205078,3585.000000,1.000000,15.000000,,,,0.000000,4.000000,4.000000,4.000000,4.000000,4.000000,4.000000,4.000000,4.000000,4.000000,4.000000,4.000000,4.000000,4.000000,4.000000,100.000000,,,,,,,,,,,,,,,,,29.000000,0.000000,0.228140,0.566772,-0.465271,0.640503,0.958022,-0.360845,-0.075685,-34.244297,-108.714424,-1.196307
1649274991.918844,1649274991.939834,117.000000,0.000000,4217.692383,4294.615234,4206.538574,4193.077148,4185.512695,4171.153809,4158.589844,4155.000000,4136.666504,4153.974121,4147.820313,4199.487305,4296.538574,4171.153809,3502.000000,1.000000,15.000000,,,,0.000000,4.000000,4.000000,4.000000,4.000000,4.000000,4.000000,4.000000,4.000000,4.000000,4.000000,4.000000,4.000000,4.000000,4.000000,100.000000,,,,,,,,,,,,,,,,,,,,,,,,,,,,
1649274991.926647,1649274991.947537,118.000000,0.000000,4199.487305,4261.538574,4197.179688,4196.666504,4164.487305,4167.820313,4168.846191,4166.794922,4141.282227,4147.051270,4146.410156,4187.436035,4281.538574,4164.615234,3611.000000,1.000000,15.000000,,,,0.000000,4.000000,4.000000,4.000000,4.000000,4.000000,4.000000,4.000000,4.000000,4.000000,4.000000,4.000000,4.000000,4.000000,4.000000,100.000000,,,,,,,,,,,,,,,,,,,,,,,,,,,,
1649274991.934450,1649274991.955240,119.000000,0.000000,4183.461426,4259.487305,4188.461426,4195.512695,4157.692383,4177.307617,4173.846191,4178.589844,4154.615234,4170.769043,4143.717773,4168.589844,4274.230957,4133.589844,3607.000000,1.000000,15.000000,,,,0.000000,4.000000,4.000000,4.000000,4.000000,4.000000,4.000000,4.000000,4.000000,4.000000,4.000000,4.000000,4.000000,4.000000,4.000000,100.000000,,,,,,,,,,,,,,,,,,,,,,,,,,,,
1649274991.942253,1649274991.963043,120.000000,0.000000,4188.077148,4271.794922,4185.128418,4187.179688,4186.410156,4182.436035,4172.307617,4178.717773,4168.846191,4183.077148,4146.794922,4162.692383,4293.461426,4121.538574,3585.000000,1.000000,15.000000,,,,0.000000,4.000000,4.000000,4.000000,4.000000,4.000000,4.000000,4.000000,4.000000,4.000000,4.000000,4.000000,4.000000,4.000000,4.000000,100.000000,,,,,,,,,,,,,,,,,30.000000,0.000000,0.227613,0.567078,-0.464905,0.640686,0.942885,-0.349126,-0.075685,-34.692913,-109.163040,-0.149538
1649274991.950056,1649274991.970746,121.000000,0.000000,4201.538574,4269.230957,4194.230957,4191.538574,4202.692383,4180.384766,4173.717773,4161.538574,4171.025879,4175.000000,4160.641113,4174.871582,4314.358887,4144.102539,3502.000000,1.000000,15.000000,,,,0.000000,4.000000,4.000000,4.000000,4.000000,4.000000,4.000000,4.000000,4.000000,4.000000,4.000000,4.000000,4.000000,4.000000,4.000000,100.000000,,,,,,,,,,,,,,,,,,,,,,,,,,,,
1649274991.957859,1649274991.978549,122.000000,0.000000,4216.410156,4284.102539,4211.538574,4212.820313,4193.974121,4182.692383,4165.769043,4142.436035,4162.563965,4185.769043,4177.563965,4196.153809,4327.692383,4172.307617,3611.000000,1.000000,15.000000,,,,0.000000,4.000000,4.000000,4.000000,4.000000,4.000000,4.000000,4.000000,4.000000,4.000000,4.000000,4.000000,4.000000,4.000000,4.000000,100.000000,,,,,,,,,,,,,,,,,,,,,,,,,,,,
1649274991.965662,1649274991.986352,123.000000,0.000000,4222.307617,4299.230957,4214.230957,4217.179688,4188.205078,4176.666504,4141.410156,4143.589844,4165.000000,4191.025879,4182.563965,4208.974121,4329.871582,4184.102539,3607.000000,1.000000,15.000000,,,,0.000000,4.000000,4.000000,4.000000,4.000000,4.000000,4.000000,4.000000,4.000000,4.000000,4.000000,4.000000,4.000000,4.000000,4.000000,100.000000,,,,,,,,,,,,,,,,,,,,,,,,,,,,
1649274991.973465,1649274991.994055,124.000000,0.000000,4208.461426,4282.307617,4200.769043,4199.615234,4173.589844,4167.820313,4132.948730,4152.179688,4170.641113,4169.487305,4170.000000,4205.000000,4319.615234,4177.436035,3585.000000,1.000000,15.000000,,,,0.000000,4.000000,4.000000,4.000000,4.000000,4.000000,4.000000,4.000000,4.000000,4.000000,4.000000,4.000000,4.000000,4.000000,4.000000,100.000000,,,,,,,,,,,,,,,,,31.000000,0.000000,0.227013,0.567749,-0.464294,0.640747,0.953628,-0.356939,-0.085451,-31.552605,-108.714424,-0.149538
1649274991.981269,1649274992.001857,125.000000,0.000000,4204.743652,4269.743652,4196.538574,4199.743652,4165.641113,4179.615234,4152.179688,4145.769043,4163.205078,4171.794922,4160.384766,4197.692383,4307.436035,4168.717773,3502.000000,1.000000,15.000000,,,,0.000000,4.000000,4.000000,4.000000,4.000000,4.000000,4.000000,4.000000,4.000000,4.000000,4.000000,4.000000,4.000000,4.000000,4.000000,100.000000,,,,,,,,,,,,,,,,,,,,,,,,,,,,
1649274991.989071,1649274992.009560,126.000000,0.000000,4220.641113,4280.769043,4203.077148,4216.153809,4193.333496,4194.871582,4159.871582,4131.410156,4150.384766,4189.743652,4163.974121,4198.461426,4311.410156,4168.717773,3611.000000,1.000000,15.000000,,,,0.000000,4.000000,4.000000,4.000000,4.000000,4.000000,4.000000,4.000000,4.000000,4.000000,4.000000,4.000000,4.000000,4.000000,4.000000,100.000000,,,,,,,,,,,,,,,,,,,,,,,,,,,,
1649274991.996874,1649274992.017263,127.000000,0.000000,4217.692383,4285.000000,4201.666504,4216.025879,4216.410156,4188.461426,4149.743652,4134.615234,4152.563965,4186.282227,4171.025879,4199.487305,4321.922852,4172.307617,52.000000,1.000000,15.000000,,,,0.000000,4.000000,4.000000,4.000000,4.000000,4.000000,4.000000,4.000000,4.000000,4.000000,4.000000,4.000000,4.000000,4.000000,4.000000,100.000000,,,,,,,,,,,,,,,,,,,,,,,,,,,,
1649274992.004678,1649274992.025066,0.000000,0.000000,4201.153809,4279.487305,4196.153809,4210.000000,4210.128418,4175.897461,4150.641113,4154.102539,4163.333496,4183.589844,4172.692383,4201.153809,4320.512695,4171.410156,3352.000000,1.000000,15.000000,,,,0.000000,4.000000,4.000000,4.000000,4.000000,4.000000,4.000000,4.000000,4.000000,4.000000,4.000000,4.000000,4.000000,4.000000,4.000000,100.000000,,,,,,,,,,,,,,,,,0.000000,0.000000,0.226607,0.568298,-0.463989,0.640625,0.938003,-0.341314,-0.087404,-32.150761,-106.321815,-1.794461
1649274992.012481,1649274992.032869,1.000000,0.000000,4198.974121,4279.102539,4197.179688,4214.743652,4200.641113,4167.436035,4152.692383,4170.000000,4168.717773,4187.307617,4171.282227,4207.820313,4317.179688,4170.128418,3559.000000,1.000000,15.000000,,,,0.000000,4.000000,4.000000,4.000000,4.000000,4.000000,4.000000,4.000000,4.000000,4.000000,4.000000,4.000000,4.000000,4.000000,4.000000,100.000000,,,,,,,,,,,,,,,,,,,,,,,,,,,,
1649274992.020284,1649274992.040572,2.000000,0.000000,4204.487305,4278.846191,4201.922852,4216.410156,4199.743652,4164.102539,4152.948730,4183.589844,4179.230957,4188.077148,4184.871582,4215.512695,4326.410156,4171.410156,3547.000000,1.000000,15.000000,,,,0.000000,4.000000,4.000000,4.000000,4.000000,4.000000,4.000000,4.000000,4.000000,4.000000,4.000000,4.000000,4.000000,4.000000,4.000000,100.000000,,,,,,,,,,,,,,,,,,,,,,,,,,,,
1649274992.028087,1649274992.048275,3.000000,0.000000,4211.153809,4263.589844,4205.000000,4205.769043,4197.179688,4168.974121,4160.897461,4194.871582,4192.436035,4190.641113,4195.512695,4215.769043,4331.282227,4172.563965,3617.000000,1.000000,15.000000,,,,0.000000,4.000000,4.000000,4.000000,4.000000,4.000000,4.000000,4.000000,4.000000,4.000000,4.000000,4.000000,4.000000,4.000000,4.000000,100.000000,,,,,,,,,,,,,,,,,,,,,,,,,,,,
1649274992.035890,1649274992.056078,4.000000,0.000000,4211.794922,4247.820313,4202.051270,4198.461426,4188.974121,4175.512695,4171.282227,4193.077148,4186.410156,4190.641113,4180.641113,4210.897461,4322.948730,4178.077148,3595.000000,1.000000,15.000000,,,,0.000000,4.000000,4.000000,4.000000,4.000000,4.000000,4.000000,4.000000,4.000000,4.000000,4.000000,4.000000,4.000000,4.000000,4.000000,100.000000,,,,,,,,,,,,,,,,,1.000000,0.000000,0.226552,0.568726,-0.463745,0.640442,0.938491,-0.329595,-0.069337,-33.646145,-109.312584,-1.794461
1649274992.043693,1649274992.063781,5.000000,0.000000,4201.153809,4248.589844,4198.077148,4195.256348,4184.487305,4183.974121,4180.384766,4182.051270,4170.256348,4185.769043,4177.051270,4214.102539,4323.077148,4182.179688,3616.000000,1.000000,15.000000,,,,0.000000,4.000000,4.000000,4.000000,4.000000,4.000000,4.000000,4.000000,4.000000,4.000000,4.000000,4.000000,4.000000,4.000000,4.000000,100.000000,,,,,,,,,,,,,,,,,,,,,,,,,,,,
1649274992.051496,1649274992.071584,6.000000,0.000000,4197.692383,4244.358887,4198.333496,4190.256348,4184.358887,4190.256348,4187.948730,4185.384766,4172.436035,4185.384766,4186.794922,4218.077148,4324.102539,4175.512695,3631.000000,1.000000,15.000000,,,,0.000000,4.000000,4.000000,4.000000,4.000000,4.000000,4.000000,4.000000,4.000000,4.000000,4.000000,4.000000,4.000000,4.000000,4.000000,100.000000,,,,,,,,,,,,,,,,,,,,,,,,,,,,
1649274992.059299,1649274992.079287,7.000000,0.000000,4202.179688,4233.717773,4198.077148,4192.307617,4183.589844,4189.102539,4191.153809,4201.025879,4186.794922,4185.512695,4179.487305,4212.820313,4311.153809,4166.794922,3618.000000,1.000000,15.000000,,,,0.000000,4.000000,4.000000,4.000000,4.000000,4.000000,4.000000,4.000000,4.000000,4.000000,4.000000,4.000000,4.000000,4.000000,4.000000,100.000000,,,,,,,,,,,,,,,,,,,,,,,,,,,,
1649274992.067102,1649274992.087090,8.000000,0.000000,4200.512695,4243.205078,4199.102539,4202.051270,4185.128418,4185.897461,4189.871582,4205.641113,4189.102539,4183.717773,4173.846191,4208.717773,4306.282227,4169.487305,3568.000000,1.000000,15.000000,,,,0.000000,4.000000,4.000000,4.000000,4.000000,4.000000,4.000000,4.000000,4.000000,4.000000,4.000000,4.000000,4.000000,4.000000,4.000000,100.000000,,,,,,,,,,,,,,,,,2.000000,0.000000,0.226829,0.568604,-0.463928,0.640320,0.948745,-0.338872,-0.085451,-33.646145,-107.817200,-2.542153
1649274992.074905,1649274992.094793,9.000000,0.000000,4201.025879,4247.820313,4200.128418,4202.436035,4187.692383,4187.436035,4186.666504,4196.922852,4185.512695,4182.692383,4178.205078,4210.769043,4310.769043,4174.743652,3679.000000,1.000000,15.000000,,,,0.000000,4.000000,4.000000,4.000000,4.000000,4.000000,4.000000,4.000000,4.000000,4.000000,4.000000,4.000000,4.000000,4.000000,4.000000,100.000000,,,,,,,,,,,,,,,,,,,,,,,,,,,,
1649274992.082708,1649274992.102496,10.000000,0.000000,4204.743652,4231.153809,4194.487305,4197.307617,4200.512695,4192.820313,4182.179688,4185.769043,4182.051270,4181.153809,4172.051270,4211.153809,4310.641113,4171.025879,3611.000000,1.000000,15.000000,,,,0.000000,4.000000,4.000000,4.000000,4.000000,4.000000,4.000000,4.000000,4.000000,4.000000,4.000000,4.000000,4.000000,4.000000,4.000000,100.000000,,,,,,,,,,,,,,,,,,,,,,,,,,,,
1649274992.090511,1649274992.110299,11.000000,0.000000,4197.563965,4230.897461,4192.563965,4202.820313,4208.461426,4190.384766,4182.436035,4184.102539,4181.282227,4180.769043,4170.512695,4214.871582,4309.358887,4173.077148,3614.000000,1.000000,15.000000,,,,0.000000,4.000000,4.000000,4.000000,4.000000,4.000000,4.000000,4.000000,4.000000,4.000000,4.000000,4.000000,4.000000,4.000000,4.000000,100.000000,,,,,,,,,,,,,,,,,,,,,,,,,,,,
1649274992.098314,1649274992.118102,12.000000,0.000000,4197.179688,4240.769043,4198.846191,4207.436035,4188.205078,4183.589844,4190.000000,4194.487305,4187.563965,4186.538574,4185.897461,4223.077148,4312.436035,4187.948730,3585.000000,1.000000,15.000000,,,,0.000000,4.000000,4.000000,4.000000,4.000000,4.000000,4.000000,4.000000,4.000000,4.000000,4.000000,4.000000,4.000000,4.000000,4.000000,100.000000,,,,,,,,,,,,,,,,,3.000000,0.000000,0.226803,0.568115,-0.464539,0.640320,0.943862,-0.312505,-0.082521,-33.945221,-108.714424,-2.691691
1649274992.106118,1649274992.125805,13.000000,0.000000,4209.743652,4232.051270,4202.563965,4201.410156,4182.563965,4189.743652,4198.974121,4208.333496,4199.358887,4196.794922,4197.051270,4224.358887,4324.102539,4191.025879,3507.000000,1.000000,15.000000,,,,0.000000,4.000000,4.000000,4.000000,4.000000,4.000000,4.000000,4.000000,4.000000,4.000000,4.000000,4.000000,4.000000,4.000000,4.000000,100.000000,,,,,,,,,,,,,,,,,,,,,,,,,,,,
1649274992.113921,1649274992.133608,14.000000,0.000000,4212.563965,4228.333496,4202.179688,4200.897461,4199.487305,4198.846191,4202.948730,4219.358887,4215.897461,4211.922852,4202.051270,4222.436035,4343.205078,4181.153809,3611.000000,1.000000,15.000000,,,,0.000000,4.000000,4.000000,4.000000,4.000000,4.000000,4.000000,4.000000,4.000000,4.000000,4.000000,4.000000,4.000000,4.000000,4.000000,100.000000,,,,,,,,,,,,,,,,,,,,,,,,,,,,
1649274992.121724,1649274992.141311,15.000000,0.000000,4201.153809,4236.153809,4198.461426,4203.589844,4195.641113,4196.794922,4201.153809,4217.563965,4218.205078,4216.538574,4206.794922,4229.487305,4345.384766,4190.384766,3614.000000,1.000000,15.000000,,,,0.000000,4.000000,4.000000,4.000000,4.000000,4.000000,4.000000,4.000000,4.000000,4.000000,4.000000,4.000000,4.000000,4.000000,4.000000,100.000000,,,,,,,,,,,,,,,,,,,,,,,,,,,,
1649274992.129527,1649274992.149113,16.000000,0.000000,4188.717773,4228.205078,4189.230957,4193.846191,4181.922852,4197.051270,4201.153809,4201.794922,4198.717773,4197.820313,4200.897461,4230.897461,4328.589844,4203.589844,0.000000,1.000000,15.000000,,,,0.000000,4.000000,4.000000,4.000000,4.000000,4.000000,4.000000,4.000000,4.000000,4.000000,4.000000,4.000000,4.000000,4.000000,4.000000,100.000000,,,,,,,,,,,,,,,,,4.000000,0.000000,0.226480,0.567200,-0.465393,0.640625,0.935073,-0.330571,-0.073243,-35.889221,-106.919968,-1.644923
1649274992.137330,1649274992.156816,17.000000,0.000000,4184.358887,4210.512695,4182.820313,4181.794922,4180.384766,4201.153809,4203.077148,4195.897461,4191.410156,4185.897461,4191.153809,4216.410156,4323.205078,4186.025879,0.000000,1.000000,15.000000,,,,0.000000,4.000000,4.000000,4.000000,4.000000,4.000000,4.000000,4.000000,4.000000,4.000000,4.000000,4.000000,4.000000,4.000000,4.000000,100.000000,,,,,,,,,,,,,,,,,,,,,,,,,,,,
1649274992.145133,1649274992.164619,18.000000,0.000000,4189.230957,4204.487305,4185.128418,4184.615234,4179.615234,4196.666504,4201.153809,4206.794922,4198.589844,4195.641113,4181.794922,4206.282227,4324.102539,4165.512695,0.000000,1.000000,15.000000,,,,0.000000,4.000000,4.000000,4.000000,4.000000,4.000000,4.000000,4.000000,4.000000,4.000000,4.000000,4.000000,4.000000,4.000000,4.000000,100.000000,,,,,,,,,,,,,,,,,,,,,,,,,,,,
1649274992.152936,1649274992.172322,19.000000,0.000000,4199.358887,4207.820313,4188.846191,4193.974121,4183.717773,4200.256348,4203.333496,4217.563965,4202.307617,4203.589844,4181.666504,4213.077148,4316.666504,4174.871582,0.000000,1.000000,15.000000,,,,0.000000,4.000000,4.000000,4.000000,4.000000,4.000000,4.000000,4.000000,4.000000,4.000000,4.000000,4.000000,4.000000,4.000000,4.000000,100.000000,,,,,,,,,,,,,,,,,,,,,,,,,,,,
1649274992.160739,1649274992.180124,20.000000,0.000000,4205.897461,4219.230957,4190.641113,4203.846191,4190.512695,4214.358887,4210.512695,4221.282227,4207.820313,4205.769043,4194.487305,4222.436035,4322.307617,4190.641113,0.000000,1.000000,15.000000,,,,0.000000,4.000000,4.000000,4.000000,4.000000,4.000000,4.000000,4.000000,4.000000,4.000000,4.000000,4.000000,4.000000,4.000000,4.000000,100.000000,,,,,,,,,,,,,,,,,5.000000,0.000000,0.225010,0.565796,-0.466553,0.641541,0.947768,-0.320806,-0.077150,-34.094757,-107.518120,-1.794461
1649274992.168542,1649274992.187827,21.000000,0.000000,4197.051270,4219.358887,4186.922852,4205.128418,4178.589844,4210.769043,4207.436035,4216.794922,4210.897461,4197.820313,4196.282227,4219.871582,4329.615234,4185.769043,0.000000,1.000000,15.000000,,,,0.000000,4.000000,4.000000,4.000000,4.000000,4.000000,4.000000,4.000000,4.000000,4.000000,4.000000,4.000000,4.000000,4.000000,4.000000,100.000000,,,,,,,,,,,,,,,,,,,,,,,,,,,,
1649274992.176345,1649274992.195630,22.000000,0.000000,4187.692383,4201.282227,4185.256348,4191.282227,4182.179688,4200.384766,4198.077148,4209.102539,4204.487305,4184.871582,4185.000000,4213.974121,4313.717773,4179.230957,0.000000,1.000000,15.000000,,,,0.000000,4.000000,4.000000,4.000000,4.000000,4.000000,4.000000,4.000000,4.000000,4.000000,4.000000,4.000000,4.000000,4.000000,4.000000,100.000000,,,,,,,,,,,,,,,,,,,,,,,,,,,,
1649274992.184148,1649274992.203333,23.000000,0.000000,4197.563965,4204.743652,4196.794922,4190.384766,4206.794922,4208.461426,4198.205078,4213.205078,4211.025879,4202.563965,4191.666504,4219.487305,4315.384766,4186.538574,0.000000,1.000000,15.000000,,,,0.000000,4.000000,4.000000,4.000000,4.000000,4.000000,4.000000,4.000000,4.000000,4.000000,4.000000,4.000000,4.000000,4.000000,4.000000,100.000000,,,,,,,,,,,,,,,,,,,,,,,,,,,,
1649274992.191951,1649274992.211036,24.000000,0.000000,4212.436035,4225.641113,4205.384766,4206.922852,4200.512695,4215.000000,4212.820313,4236.282227,4230.897461,4226.282227,4212.820313,4222.179688,4342.051270,4189.615234,0.000000,1.000000,15.000000,,,,0.000000,4.000000,4.000000,4.000000,4.000000,4.000000,4.000000,4.000000,4.000000,4.000000,4.000000,4.000000,4.000000,4.000000,4.000000,100.000000,,,,,,,,,,,,,,,,,6.000000,0.000000,0.222449,0.564331,-0.467957,0.642700,0.944350,-0.333013,-0.064454,-33.047989,-108.415352,-1.943999
1649274992.199754,1649274992.218839,25.000000,0.000000,4210.384766,4221.025879,4203.333496,4210.256348,4189.743652,4216.538574,4225.256348,4238.461426,4225.384766,4217.051270,4215.000000,4217.051270,4344.615234,4180.000000,0.000000,1.000000,15.000000,,,,0.000000,4.000000,4.000000,4.000000,4.000000,4.000000,4.000000,4.000000,4.000000,4.000000,4.000000,4.000000,4.000000,4.000000,4.000000,100.000000,,,,,,,,,,,,,,,,,,,,,,,,,,,,
1649274992.207558,1649274992.226542,26.000000,0.000000,4202.179688,4212.307617,4201.153809,4201.282227,4203.974121,4224.615234,4209.102539,4198.717773,4192.692383,4210.641113,4203.461426,4223.846191,4330.641113,4180.384766,0.000000,1.000000,15.000000,,,,0.000000,4.000000,4.000000,4.000000,4.000000,4.000000,4.000000,4.000000,4.000000,4.000000,4.000000,4.000000,4.000000,4.000000,4.000000,100.000000,,,,,,,,,,,,,,,,,,,,,,,,,,,,
1649274992.215361,1649274992.234345,27.000000,0.000000,4200.512695,4218.846191,4201.922852,4200.128418,4220.641113,4218.589844,4179.871582,4178.974121,4183.717773,4209.230957,4200.897461,4232.820313,4326.794922,4191.666504,0.000000,1.000000,15.000000,,,,0.000000,4.000000,4.000000,4.000000,4.000000,4.000000,4.000000,4.000000,4.000000,4.000000,4.000000,4.000000,4.000000,4.000000,4.000000,100.000000,,,,,,,,,,,,,,,,,,,,,,,,,,,,
1649274992.223164,1649274992.242048,28.000000,0.000000,4203.077148,4210.641113,4202.179688,4201.794922,4226.025879,4210.128418,4179.230957,4199.487305,4211.153809,4197.307617,4201.025879,4224.487305,4324.102539,4192.307617,0.000000,1.000000,15.000000,,,,0.000000,4.000000,4.000000,4.000000,4.000000,4.000000,4.000000,4.000000,4.000000,4.000000,4.000000,4.000000,4.000000,4.000000,4.000000,100.000000,,,,,,,,,,,,,,,,,7.000000,0.000000,0.221300,0.563904,-0.468262,0.643250,0.955093,-0.371099,-0.067872,-33.496605,-107.966736,0.149538
1649274992.230967,1649274992.249751,29.000000,0.000000,4211.282227,4200.000000,4203.589844,4201.666504,4215.256348,4218.717773,4196.410156,4207.948730,4221.538574,4206.410156,4196.410156,4213.974121,4319.487305,4183.205078,0.000000,1.000000,15.000000,,,,0.000000,4.000000,4.000000,4.000000,4.000000,4.000000,4.000000,4.000000,4.000000,4.000000,4.000000,4.000000,4.000000,4.000000,4.000000,100.000000,,,,,,,,,,,,,,,,,,,,,,,,,,,,
1649274992.238770,1649274992.257554,30.000000,0.000000,4218.717773,4219.230957,4211.153809,4214.487305,4204.102539,4221.153809,4198.205078,4203.589844,4210.641113,4227.179688,4201.025879,4220.256348,4331.794922,4183.205078,0.000000,1.000000,15.000000,,,,0.000000,4.000000,4.000000,4.000000,4.000000,4.000000,4.000000,4.000000,4.000000,4.000000,4.000000,4.000000,4.000000,4.000000,4.000000,100.000000,,,,,,,,,,,,,,,,,,,,,,,,,,,,
1649274992.246573,1649274992.265357,31.000000,0.000000,4216.025879,4228.333496,4215.000000,4221.666504,4200.641113,4211.153809,4199.743652,4214.871582,4217.307617,4229.358887,4216.025879,4229.871582,4340.641113,4192.179688,0.000000,1.000000,15.000000,,,,0.000000,4.000000,4.000000,4.000000,4.000000,4.000000,4.000000,4.000000,4.000000,4.000000,4.000000,4.000000,4.000000,4.000000,4.000000,100.000000,,,,,,,,,,,,,,,,,,,,,,,,,,,,
1649274992.254376,1649274992.273060,32.000000,0.000000,4215.641113,4205.256348,4213.461426,4211.282227,4194.102539,4211.282227,4207.179688,4220.897461,4228.333496,4228.974121,4220.769043,4231.794922,4331.410156,4199.358887,0.000000,1.000000,15.000000,,,,0.000000,4.000000,4.000000,4.000000,4.000000,4.000000,4.000000,4.000000,4.000000,4.000000,4.000000,4.000000,4.000000,4.000000,4.000000,100.000000,,,,,,,,,,,,,,,,,8.000000,0.000000,0.218076,0.563538,-0.468872,0.644226,0.951186,-0.347662,-0.069337,-33.646145,-108.116272,-2.841230
1649274992.262179,1649274992.280763,33.000000,0.000000,4224.230957,4202.436035,4217.436035,4209.615234,4200.000000,4217.051270,4202.307617,4212.820313,4221.282227,4224.487305,4215.384766,4235.769043,4337.051270,4202.948730,0.000000,1.000000,15.000000,,,,0.000000,4.000000,4.000000,4.000000,4.000000,4.000000,4.000000,4.000000,4.000000,4.000000,4.000000,4.000000,4.000000,4.000000,4.000000,100.000000,,,,,,,,,,,,,,,,,,,,,,,,,,,,
1649274992.269982,1649274992.288566,34.000000,0.000000,4219.230957,4217.563965,4217.948730,4216.410156,4218.077148,4212.436035,4201.025879,4211.538574,4201.922852,4200.641113,4206.538574,4233.205078,4342.436035,4194.743652,0.000000,1.000000,15.000000,,,,0.000000,4.000000,4.000000,4.000000,4.000000,4.000000,4.000000,4.000000,4.000000,4.000000,4.000000,4.000000,4.000000,4.000000,4.000000,100.000000,,,,,,,,,,,,,,,,,,,,,,,,,,,,
1649274992.277785,1649274992.296369,35.000000,0.000000,4200.641113,4205.256348,4201.282227,4205.384766,4207.436035,4207.179688,4209.102539,4211.794922,4192.948730,4184.358887,4186.282227,4209.487305,4311.025879,4168.077148,0.000000,1.000000,15.000000,,,,0.000000,4.000000,4.000000,4.000000,4.000000,4.000000,4.000000,4.000000,4.000000,4.000000,4.000000,4.000000,4.000000,4.000000,4.000000,100.000000,,,,,,,,,,,,,,,,,,,,,,,,,,,,
1649274992.285588,1649274992.304072,36.000000,0.000000,4196.794922,4196.794922,4194.487305,4195.128418,4196.282227,4207.307617,4206.666504,4202.820313,4193.589844,4197.051270,4174.871582,4191.282227,4286.922852,4151.153809,0.000000,1.000000,15.000000,,,,0.000000,4.000000,4.000000,4.000000,4.000000,4.000000,4.000000,4.000000,4.000000,4.000000,4.000000,4.000000,4.000000,4.000000,4.000000,100.000000,,,,,,,,,,,,,,,,,9.000000,0.000000,0.215153,0.563538,-0.469299,0.644897,0.943374,-0.373053,-0.065431,-34.991989,-109.462120,-1.943999
1649274992.293391,1649274992.311775,37.000000,0.000000,4206.922852,4215.256348,4208.205078,4211.025879,4219.615234,4213.461426,4203.846191,4206.282227,4201.538574,4223.589844,4194.102539,4207.820313,4312.436035,4165.769043,0.000000,1.000000,15.000000,,,,0.000000,4.000000,4.000000,4.000000,4.000000,4.000000,4.000000,4.000000,4.000000,4.000000,4.000000,4.000000,4.000000,4.000000,4.000000,100.000000,,,,,,,,,,,,,,,,,,,,,,,,,,,,
1649274992.301194,1649274992.319578,38.000000,0.000000,4209.487305,4215.384766,4211.410156,4219.871582,4214.743652,4221.666504,4217.051270,4226.922852,4216.666504,4235.256348,4207.948730,4223.974121,4328.717773,4179.743652,0.000000,1.000000,15.000000,,,,0.000000,4.000000,4.000000,4.000000,4.000000,4.000000,4.000000,4.000000,4.000000,4.000000,4.000000,4.000000,4.000000,4.000000,4.000000,100.000000,,,,,,,,,,,,,,,,,,,,,,,,,,,,
1649274992.308998,1649274992.327381,39.000000,0.000000,4210.128418,4204.358887,4207.051270,4212.051270,4194.358887,4216.538574,4221.922852,4229.487305,4213.589844,4229.871582,4197.307617,4214.358887,4315.512695,4173.974121,0.000000,1.000000,15.000000,,,,0.000000,4.000000,4.000000,4.000000,4.000000,4.000000,4.000000,4.000000,4.000000,4.000000,4.000000,4.000000,4.000000,4.000000,4.000000,100.000000,,,,,,,,,,,,,,,,,,,,,,,,,,,,
1649274992.316800,1649274992.335084,40.000000,0.000000,4216.922852,4219.743652,4216.538574,4218.846191,4211.153809,4213.589844,4217.179688,4211.282227,4196.794922,4227.307617,4197.948730,4212.563965,4326.025879,4177.563965,0.000000,1.000000,15.000000,,,,0.000000,4.000000,4.000000,4.000000,4.000000,4.000000,4.000000,4.000000,4.000000,4.000000,4.000000,4.000000,4.000000,4.000000,4.000000,100.000000,,,,,,,,,,,,,,,,,10.000000,0.000000,0.212948,0.563721,-0.469666,0.645203,0.937026,-0.383307,-0.062501,-35.291065,-109.312584,-2.841230
1649274992.324603,1649274992.342787,41.000000,0.000000,4211.410156,4218.717773,4217.692383,4218.333496,4221.794922,4225.897461,4220.769043,4204.871582,4201.922852,4224.743652,4207.692383,4220.128418,4335.769043,4183.974121,0.000000,1.000000,15.000000,,,,0.000000,4.000000,4.000000,4.000000,4.000000,4.000000,4.000000,4.000000,4.000000,4.000000,4.000000,4.000000,4.000000,4.000000,4.000000,100.000000,,,,,,,,,,,,,,,,,,,,,,,,,,,,
1649274992.332407,1649274992.350590,42.000000,0.000000,4201.538574,4200.384766,4204.230957,4201.666504,4213.077148,4225.128418,4219.230957,4203.717773,4213.974121,4217.436035,4199.871582,4213.333496,4313.461426,4173.461426,0.000000,1.000000,15.000000,,,,0.000000,4.000000,4.000000,4.000000,4.000000,4.000000,4.000000,4.000000,4.000000,4.000000,4.000000,4.000000,4.000000,4.000000,4.000000,100.000000,,,,,,,,,,,,,,,,,,,,,,,,,,,,
1649274992.340210,1649274992.358393,43.000000,0.000000,4207.307617,4208.717773,4206.153809,4206.282227,4217.692383,4213.974121,4215.512695,4212.692383,4214.230957,4219.358887,4197.820313,4212.179688,4304.871582,4172.820313,0.000000,1.000000,15.000000,,,,0.000000,4.000000,4.000000,4.000000,4.000000,4.000000,4.000000,4.000000,4.000000,4.000000,4.000000,4.000000,4.000000,4.000000,4.000000,100.000000,,,,,,,,,,,,,,,,,,,,,,,,,,,,
1649274992.348013,1649274992.366095,44.000000,0.000000,4215.256348,4209.743652,4218.077148,4222.307617,4218.205078,4220.769043,4223.461426,4232.179688,4222.563965,4227.692383,4208.589844,4221.794922,4319.358887,4184.358887,0.000000,1.000000,15.000000,,,,0.000000,4.000000,4.000000,4.000000,4.000000,4.000000,4.000000,4.000000,4.000000,4.000000,4.000000,4.000000,4.000000,4.000000,4.000000,100.000000,0.976563,91.666664,4.000000,4.000000,4.000000,4.000000,3.000000,4.000000,4.000000,4.000000,4.000000,4.000000,4.000000,4.000000,4.000000,4.000000,11.000000,0.000000,0.211119,0.563843,-0.470093,0.645386,0.936049,-0.389654,-0.075685,-34.692913,-108.415352,-2.691691
1649274992.355816,1649274992.373798,45.000000,0.000000,4217.820313,4193.974121,4220.769043,4219.871582,4216.410156,4222.436035,4215.897461,4221.410156,4218.461426,4238.589844,4209.230957,4221.538574,4325.512695,4183.589844,0.000000,1.000000,15.000000,,,,0.000000,4.000000,4.000000,4.000000,4.000000,4.000000,4.000000,4.000000,4.000000,4.000000,4.000000,4.000000,4.000000,4.000000,4.000000,100.000000,,,,,,,,,,,,,,,,,,,,,,,,,,,,
1649274992.363619,1649274992.381501,46.000000,0.000000,4222.948730,4212.563965,4223.589844,4221.025879,4227.563965,4212.820313,4208.589844,4200.641113,4196.025879,4242.051270,4213.461426,4221.153809,4329.743652,4184.615234,0.000000,1.000000,15.000000,,,,0.000000,4.000000,4.000000,4.000000,4.000000,4.000000,4.000000,4.000000,4.000000,4.000000,4.000000,4.000000,4.000000,4.000000,4.000000,100.000000,,,,,,,,,,,,,,,,,,,,,,,,,,,,
1649274992.371422,1649274992.389304,47.000000,0.000000,4234.358887,4243.717773,4235.641113,4242.692383,4220.897461,4223.589844,4225.769043,4215.256348,4210.897461,4237.051270,4230.512695,4231.794922,4340.641113,4202.563965,0.000000,1.000000,15.000000,,,,0.000000,4.000000,4.000000,4.000000,4.000000,4.000000,4.000000,4.000000,4.000000,4.000000,4.000000,4.000000,4.000000,4.000000,4.000000,100.000000,,,,,,,,,,,,,,,,,,,,,,,,,,,,
1649274992.379225,1649274992.397107,48.000000,0.000000,4245.641113,4235.897461,4242.948730,4248.461426,4215.641113,4232.307617,4225.384766,4227.179688,4235.128418,4239.230957,4233.846191,4238.205078,4342.179688,4211.538574,0.000000,1.000000,15.000000,,,,0.000000,4.000000,4.000000,4.000000,4.000000,4.000000,4.000000,4.000000,4.000000,4.000000,4.000000,4.000000,4.000000,4.000000,4.000000,100.000000,,,,,,,,,,,,,,,,,12.000000,0.000000,0.209680,0.563782,-0.470642,0.645508,0.933120,-0.377935,-0.082033,-34.543373,-108.564888,-1.345846
1649274992.387028,1649274992.404810,49.000000,0.000000,4241.153809,4218.461426,4236.282227,4235.512695,4238.974121,4214.102539,4199.871582,4206.282227,4218.205078,4239.615234,4220.256348,4232.563965,4333.717773,4200.384766,0.000000,1.000000,15.000000,,,,0.000000,4.000000,4.000000,4.000000,4.000000,4.000000,4.000000,4.000000,4.000000,4.000000,4.000000,4.000000,4.000000,4.000000,4.000000,100.000000,,,,,,,,,,,,,,,,,,,,,,,,,,,,
1649274992.394831,1649274992.412514,50.000000,0.000000,4229.743652,4220.128418,4230.641113,4230.897461,4232.948730,4201.282227,4194.743652,4196.922852,4202.820313,4236.666504,4217.179688,4229.230957,4332.436035,4197.179688,0.000000,1.000000,15.000000,,,,0.000000,4.000000,4.000000,4.000000,4.000000,4.000000,4.000000,4.000000,4.000000,4.000000,4.000000,4.000000,4.000000,4.000000,4.000000,100.000000,,,,,,,,,,,,,,,,,,,,,,,,,,,,
1649274992.402634,1649274992.420317,51.000000,0.000000,4239.230957,4221.025879,4234.487305,4236.282227,4208.589844,4206.282227,4206.922852,4207.051270,4203.461426,4247.563965,4224.102539,4233.846191,4340.128418,4212.179688,0.000000,1.000000,15.000000,,,,0.000000,4.000000,4.000000,4.000000,4.000000,4.000000,4.000000,4.000000,4.000000,4.000000,4.000000,4.000000,4.000000,4.000000,4.000000,100.000000,,,,,,,,,,,,,,,,,,,,,,,,,,,,
1649274992.410437,1649274992.428020,52.000000,0.000000,4250.641113,4214.487305,4238.974121,4235.000000,4218.846191,4221.922852,4218.461426,4209.743652,4203.974121,4242.692383,4213.717773,4236.410156,4328.974121,4218.333496,0.000000,1.000000,15.000000,,,,0.000000,4.000000,4.000000,4.000000,4.000000,4.000000,4.000000,4.000000,4.000000,4.000000,4.000000,4.000000,4.000000,4.000000,4.000000,100.000000,,,,,,,,,,,,,,,,,13.000000,0.000000,0.208310,0.563965,-0.470947,0.645569,0.931655,-0.370123,-0.084474,-35.440605,-108.714424,-2.990768
1649274992.418240,1649274992.435823,53.000000,0.000000,4233.461426,4201.538574,4233.077148,4220.769043,4233.333496,4222.436035,4216.538574,4203.461426,4209.743652,4215.256348,4197.563965,4232.179688,4305.384766,4205.769043,0.000000,1.000000,15.000000,,,,0.000000,4.000000,4.000000,4.000000,4.000000,4.000000,4.000000,4.000000,4.000000,4.000000,4.000000,4.000000,4.000000,4.000000,4.000000,100.000000,,,,,,,,,,,,,,,,,,,,,,,,,,,,
1649274992.426043,1649274992.443526,54.000000,0.000000,4224.358887,4201.025879,4229.102539,4218.717773,4234.615234,4199.487305,4199.102539,4195.512695,4210.897461,4214.487305,4205.128418,4229.102539,4312.307617,4198.589844,0.000000,1.000000,15.000000,,,,0.000000,4.000000,4.000000,4.000000,4.000000,4.000000,4.000000,4.000000,4.000000,4.000000,4.000000,4.000000,4.000000,4.000000,4.000000,100.000000,,,,,,,,,,,,,,,,,,,,,,,,,,,,
1649274992.433847,1649274992.451329,55.000000,0.000000,4243.333496,4217.051270,4234.230957,4230.897461,4229.358887,4201.153809,4201.410156,4210.384766,4217.307617,4233.974121,4221.025879,4232.948730,4334.743652,4201.666504,0.000000,1.000000,15.000000,,,,0.000000,4.000000,4.000000,4.000000,4.000000,4.000000,4.000000,4.000000,4.000000,4.000000,4.000000,4.000000,4.000000,4.000000,4.000000,100.000000,,,,,,,,,,,,,,,,,,,,,,,,,,,,
1649274992.441650,1649274992.459032,56.000000,0.000000,4250.128418,4221.538574,4235.769043,4237.948730,4207.692383,4230.000000,4221.410156,4224.230957,4222.436035,4232.051270,4219.102539,4234.615234,4328.974121,4205.769043,0.000000,1.000000,15.000000,,,,0.000000,4.000000,4.000000,4.000000,4.000000,4.000000,4.000000,4.000000,4.000000,4.000000,4.000000,4.000000,4.000000,4.000000,4.000000,100.000000,,,,,,,,,,,,,,,,,14.000000,0.000000,0.207350,0.564026,-0.471130,0.645691,0.929702,-0.387213,-0.093263,-32.748913,-109.462120,-1.644923
1649274992.449453,1649274992.466835,57.000000,0.000000,4236.922852,4215.128418,4228.333496,4235.512695,4198.589844,4228.589844,4218.205078,4207.948730,4200.256348,4224.358887,4215.512695,4232.820313,4320.256348,4207.820313,0.000000,1.000000,15.000000,,,,0.000000,4.000000,4.000000,4.000000,4.000000,4.000000,4.000000,4.000000,4.000000,4.000000,4.000000,4.000000,4.000000,4.000000,4.000000,100.000000,,,,,,,,,,,,,,,,,,,,,,,,,,,,
1649274992.457256,1649274992.474538,58.000000,0.000000,4228.461426,4209.871582,4222.307617,4231.153809,4211.666504,4208.077148,4210.128418,4199.102539,4185.000000,4229.487305,4219.358887,4235.384766,4329.358887,4204.871582,0.000000,1.000000,15.000000,,,,0.000000,4.000000,4.000000,4.000000,4.000000,4.000000,4.000000,4.000000,4.000000,4.000000,4.000000,4.000000,4.000000,4.000000,4.000000,100.000000,,,,,,,,,,,,,,,,,,,,,,,,,,,,
1649274992.465059,1649274992.482341,59.000000,0.000000,4229.487305,4205.769043,4227.563965,4230.897461,4220.384766,4218.205078,4219.358887,4218.717773,4209.358887,4234.743652,4218.974121,4243.461426,4329.358887,4207.436035,0.000000,1.000000,15.000000,,,,0.000000,4.000000,4.000000,4.000000,4.000000,4.000000,4.000000,4.000000,4.000000,4.000000,4.000000,4.000000,4.000000,4.000000,4.000000,100.000000,,,,,,,,,,,,,,,,,,,,,,,,,,,,
1649274992.472862,1649274992.490044,60.000000,0.000000,4229.871582,4198.461426,4227.820313,4231.282227,4228.846191,4219.102539,4213.333496,4224.102539,4220.000000,4230.384766,4214.871582,4241.538574,4318.077148,4215.384766,0.000000,1.000000,15.000000,,,,0.000000,4.000000,4.000000,4.000000,4.000000,4.000000,4.000000,4.000000,4.000000,4.000000,4.000000,4.000000,4.000000,4.000000,4.000000,100.000000,,,,,,,,,,,,,,,,,15.000000,0.000000,0.206664,0.564087,-0.471191,0.645813,0.920913,-0.396490,-0.078126,-33.646145,-109.312584,-1.345846
1649274992.480665,1649274992.497847,61.000000,0.000000,4228.589844,4189.102539,4218.589844,4225.512695,4230.256348,4196.666504,4201.025879,4206.922852,4200.897461,4232.692383,4212.948730,4231.410156,4315.128418,4215.897461,0.000000,1.000000,15.000000,,,,0.000000,4.000000,4.000000,4.000000,4.000000,4.000000,4.000000,4.000000,4.000000,4.000000,4.000000,4.000000,4.000000,4.000000,4.000000,100.000000,,,,,,,,,,,,,,,,,,,,,,,,,,,,
1649274992.488468,1649274992.505550,62.000000,0.000000,4224.102539,4186.922852,4212.692383,4213.846191,4214.615234,4215.000000,4218.717773,4214.102539,4207.436035,4237.563965,4220.641113,4237.692383,4323.077148,4215.384766,0.000000,1.000000,15.000000,,,,0.000000,4.000000,4.000000,4.000000,4.000000,4.000000,4.000000,4.000000,4.000000,4.000000,4.000000,4.000000,4.000000,4.000000,4.000000,100.000000,,,,,,,,,,,,,,,,,,,,,,,,,,,,
1649274992.496271,1649274992.513353,63.000000,0.000000,4219.487305,4199.230957,4219.615234,4220.256348,4205.384766,4248.205078,4240.769043,4240.512695,4233.461426,4234.871582,4232.692383,4252.307617,4332.307617,4221.153809,0.000000,1.000000,15.000000,,,,0.000000,4.000000,4.000000,4.000000,4.000000,4.000000,4.000000,4.000000,4.000000,4.000000,4.000000,4.000000,4.000000,4.000000,4.000000,100.000000,,,,,,,,,,,,,,,,,,,,,,,,,,,,
1649274992.504074,1649274992.521056,64.000000,0.000000,4221.922852,4204.743652,4224.615234,4235.641113,4204.358887,4239.230957,4236.025879,4242.179688,4230.384766,4236.025879,4223.205078,4244.487305,4322.051270,4215.256348,3354.000000,1.000000,15.000000,,,,0.000000,4.000000,4.000000,4.000000,4.000000,4.000000,4.000000,4.000000,4.000000,4.000000,4.000000,4.000000,4.000000,4.000000,4.000000,100.000000,,,,,,,,,,,,,,,,,16.000000,0.000000,0.206091,0.564087,-0.471191,0.645996,0.935073,-0.389654,-0.088380,-33.496605,-108.415352,-1.644923
1649274992.511877,1649274992.528859,65.000000,0.000000,4227.820313,4198.461426,4221.025879,4231.922852,4204.230957,4223.205078,4231.794922,4235.256348,4224.102539,4244.230957,4203.461426,4226.922852,4306.282227,4198.717773,3562.000000,1.000000,15.000000,,,,0.000000,4.000000,4.000000,4.000000,4.000000,4.000000,4.000000,4.000000,4.000000,4.000000,4.000000,4.000000,4.000000,4.000000,4.000000,100.000000,,,,,,,,,,,,,,,,,,,,,,,,,,,,
1649274992.519680,1649274992.536562,66.000000,0.000000,4231.410156,4206.153809,4224.487305,4226.410156,4212.307617,4233.461426,4244.743652,4244.743652,4238.205078,4245.512695,4208.717773,4231.666504,4316.410156,4199.102539,3554.000000,1.000000,15.000000,,,,0.000000,4.000000,4.000000,4.000000,4.000000,4.000000,4.000000,4.000000,4.000000,4.000000,4.000000,4.000000,4.000000,4.000000,4.000000,100.000000,,,,,,,,,,,,,,,,,,,,,,,,,,,,
1649274992.527483,1649274992.544365,67.000000,0.000000,4224.871582,4215.128418,4227.820313,4229.102539,4216.153809,4235.641113,4242.179688,4249.871582,4240.128418,4241.025879,4226.538574,4243.846191,4327.692383,4210.769043,3613.000000,1.000000,15.000000,,,,0.000000,4.000000,4.000000,4.000000,4.000000,4.000000,4.000000,4.000000,4.000000,4.000000,4.000000,4.000000,4.000000,4.000000,4.000000,100.000000,,,,,,,,,,,,,,,,,,,,,,,,,,,,
1649274992.535287,1649274992.552068,68.000000,0.000000,4223.846191,4201.794922,4225.512695,4229.358887,4213.333496,4224.358887,4227.307617,4242.179688,4224.871582,4237.692383,4233.717773,4253.077148,4323.461426,4220.897461,3611.000000,1.000000,15.000000,,,,0.000000,4.000000,4.000000,4.000000,4.000000,4.000000,4.000000,4.000000,4.000000,4.000000,4.000000,4.000000,4.000000,4.000000,4.000000,100.000000,,,,,,,,,,,,,,,,,17.000000,0.000000,0.205233,0.564209,-0.471252,0.646118,0.943862,-0.412604,-0.092775,-34.244297,-107.966736,-2.243076
1649274992.543090,1649274992.559771,69.000000,0.000000,4239.487305,4193.077148,4230.641113,4227.948730,4214.615234,4224.358887,4227.179688,4237.692383,4221.666504,4230.000000,4234.487305,4260.128418,4324.358887,4230.384766,3607.000000,1.000000,15.000000,,,,0.000000,4.000000,4.000000,4.000000,4.000000,4.000000,4.000000,4.000000,4.000000,4.000000,4.000000,4.000000,4.000000,4.000000,4.000000,100.000000,,,,,,,,,,,,,,,,,,,,,,,,,,,,
1649274992.550893,1649274992.567574,70.000000,0.000000,4253.333496,4210.769043,4240.128418,4232.051270,4210.384766,4232.307617,4232.179688,4227.436035,4229.615234,4234.358887,4229.358887,4255.512695,4324.102539,4232.436035,3625.000000,1.000000,15.000000,,,,0.000000,4.000000,4.000000,4.000000,4.000000,4.000000,4.000000,4.000000,4.000000,4.000000,4.000000,4.000000,4.000000,4.000000,4.000000,100.000000,,,,,,,,,,,,,,,,,,,,,,,,,,,,
1649274992.558696,1649274992.575377,71.000000,0.000000,4248.717773,4225.256348,4236.794922,4240.384766,4209.615234,4237.307617,4231.794922,4210.897461,4228.205078,4251.666504,4226.538574,4247.563965,4317.820313,4223.717773,3606.000000,1.000000,15.000000,,,,0.000000,4.000000,4.000000,4.000000,4.000000,4.000000,4.000000,4.000000,4.000000,4.000000,4.000000,4.000000,4.000000,4.000000,4.000000,100.000000,,,,,,,,,,,,,,,,,,,,,,,,,,,,
1649274992.566499,1649274992.583080,72.000000,0.000000,4239.615234,4215.641113,4230.128418,4242.820313,4228.077148,4231.666504,4229.102539,4212.692383,4233.205078,4259.871582,4228.589844,4245.384766,4319.102539,4211.666504,3556.000000,1.000000,15.000000,,,,0.000000,4.000000,4.000000,4.000000,4.000000,4.000000,4.000000,4.000000,4.000000,4.000000,4.000000,4.000000,4.000000,4.000000,4.000000,100.000000,,,,,,,,,,,,,,,,,18.000000,0.000000,0.204793,0.564331,-0.471130,0.646240,0.926284,-0.407233,-0.088380,-33.646145,-108.863968,-2.841230
1649274992.574302,1649274992.590783,73.000000,0.000000,4235.897461,4212.051270,4232.948730,4237.179688,4236.794922,4233.461426,4232.436035,4228.589844,4245.512695,4262.948730,4228.974121,4242.948730,4324.102539,4206.666504,3677.000000,1.000000,15.000000,,,,0.000000,4.000000,4.000000,4.000000,4.000000,4.000000,4.000000,4.000000,4.000000,4.000000,4.000000,4.000000,4.000000,4.000000,4.000000,100.000000,,,,,,,,,,,,,,,,,,,,,,,,,,,,
1649274992.582105,1649274992.598586,74.000000,0.000000,4230.769043,4217.307617,4229.230957,4233.205078,4211.410156,4242.051270,4241.282227,4242.948730,4246.538574,4257.051270,4229.743652,4240.769043,4320.256348,4208.846191,3617.000000,1.000000,15.000000,,,,0.000000,4.000000,4.000000,4.000000,4.000000,4.000000,4.000000,4.000000,4.000000,4.000000,4.000000,4.000000,4.000000,4.000000,4.000000,100.000000,,,,,,,,,,,,,,,,,,,,,,,,,,,,
1649274992.589908,1649274992.606389,75.000000,0.000000,4230.769043,4209.358887,4222.563965,4234.615234,4201.153809,4235.000000,4239.487305,4244.871582,4235.897461,4240.256348,4229.230957,4244.871582,4315.128418,4218.846191,3619.000000,1.000000,15.000000,,,,0.000000,4.000000,4.000000,4.000000,4.000000,4.000000,4.000000,4.000000,4.000000,4.000000,4.000000,4.000000,4.000000,4.000000,4.000000,100.000000,,,,,,,,,,,,,,,,,,,,,,,,,,,,
1649274992.597711,1649274992.614092,76.000000,0.000000,4231.538574,4197.563965,4219.871582,4231.410156,4228.077148,4224.871582,4225.256348,4228.589844,4223.589844,4229.230957,4219.487305,4241.282227,4310.897461,4220.897461,3597.000000,1.000000,15.000000,,,,0.000000,4.000000,4.000000,4.000000,4.000000,4.000000,4.000000,4.000000,4.000000,4.000000,4.000000,4.000000,4.000000,4.000000,4.000000,100.000000,,,,,,,,,,,,,,,,,19.000000,0.000000,0.204628,0.564270,-0.471191,0.646301,0.926772,-0.392096,-0.097658,-34.842449,-109.312584,-2.841230
1649274992.605514,1649274992.621795,77.000000,0.000000,4224.871582,4198.717773,4218.205078,4224.230957,4240.256348,4230.128418,4226.922852,4220.384766,4223.077148,4231.153809,4209.487305,4228.077148,4306.410156,4200.641113,3507.000000,1.000000,15.000000,,,,0.000000,4.000000,4.000000,4.000000,4.000000,4.000000,4.000000,4.000000,4.000000,4.000000,4.000000,4.000000,4.000000,4.000000,4.000000,100.000000,,,,,,,,,,,,,,,,,,,,,,,,,,,,
1649274992.613317,1649274992.629598,78.000000,0.000000,4229.102539,4210.897461,4221.794922,4228.461426,4214.102539,4239.102539,4241.922852,4223.589844,4226.153809,4237.436035,4214.487305,4228.589844,4308.461426,4193.333496,3617.000000,1.000000,15.000000,,,,0.000000,4.000000,4.000000,4.000000,4.000000,4.000000,4.000000,4.000000,4.000000,4.000000,4.000000,4.000000,4.000000,4.000000,4.000000,100.000000,,,,,,,,,,,,,,,,,,,,,,,,,,,,
1649274992.621120,1649274992.637401,79.000000,0.000000,4242.692383,4223.077148,4232.051270,4242.820313,4195.000000,4234.358887,4247.051270,4235.512695,4239.230957,4250.897461,4227.051270,4244.230957,4320.384766,4214.871582,3619.000000,1.000000,15.000000,,,,0.000000,4.000000,4.000000,4.000000,4.000000,4.000000,4.000000,4.000000,4.000000,4.000000,4.000000,4.000000,4.000000,4.000000,4.000000,100.000000,,,,,,,,,,,,,,,,,,,,,,,,,,,,
1649274992.628923,1649274992.645104,80.000000,0.000000,4237.948730,4215.000000,4233.077148,4246.794922,4217.563965,4231.282227,4246.922852,4249.102539,4252.051270,4271.153809,4236.025879,4252.179688,4329.871582,4222.563965,3597.000000,1.000000,15.000000,,,,0.000000,4.000000,4.000000,4.000000,4.000000,4.000000,4.000000,4.000000,4.000000,4.000000,4.000000,4.000000,4.000000,4.000000,4.000000,100.000000,,,,,,,,,,,,,,,,,20.000000,0.000000,0.204687,0.564026,-0.471375,0.646362,0.942397,-0.385260,-0.072755,-34.842449,-109.611656,-2.841230
1649274992.636727,1649274992.652807,81.000000,0.000000,4216.922852,4198.461426,4217.179688,4231.538574,4233.461426,4241.794922,4248.333496,4243.974121,4239.615234,4265.512695,4230.128418,4235.256348,4316.538574,4200.000000,3507.000000,1.000000,15.000000,,,,0.000000,4.000000,4.000000,4.000000,4.000000,4.000000,4.000000,4.000000,4.000000,4.000000,4.000000,4.000000,4.000000,4.000000,4.000000,100.000000,,,,,,,,,,,,,,,,,,,,,,,,,,,,
1649274992.644529,1649274992.660610,82.000000,0.000000,4212.179688,4201.666504,4212.436035,4225.512695,4220.769043,4244.615234,4239.871582,4229.615234,4229.743652,4245.256348,4225.641113,4224.743652,4308.589844,4195.769043,3617.000000,1.000000,15.000000,,,,0.000000,4.000000,4.000000,4.000000,4.000000,4.000000,4.000000,4.000000,4.000000,4.000000,4.000000,4.000000,4.000000,4.000000,4.000000,100.000000,,,,,,,,,,,,,,,,,,,,,,,,,,,,
1649274992.652332,1649274992.668413,83.000000,0.000000,4220.512695,4205.641113,4223.077148,4232.179688,4221.410156,4233.589844,4224.230957,4226.282227,4235.000000,4245.256348,4235.128418,4238.974121,4319.615234,4216.410156,3619.000000,1.000000,15.000000,,,,0.000000,4.000000,4.000000,4.000000,4.000000,4.000000,4.000000,4.000000,4.000000,4.000000,4.000000,4.000000,4.000000,4.000000,4.000000,100.000000,,,,,,,,,,,,,,,,,,,,,,,,,,,,
1649274992.660136,1649274992.676116,84.000000,0.000000,4221.922852,4202.563965,4229.743652,4229.487305,4228.589844,4228.461426,4222.051270,4237.051270,4243.205078,4250.897461,4232.051270,4248.205078,4315.128418,4222.307617,3597.000000,1.000000,15.000000,,,,0.000000,4.000000,4.000000,4.000000,4.000000,4.000000,4.000000,4.000000,4.000000,4.000000,4.000000,4.000000,4.000000,4.000000,4.000000,100.000000,,,,,,,,,,,,,,,,,21.000000,0.000000,0.205130,0.563782,-0.471558,0.646301,0.925307,-0.398932,-0.083009,-34.244297,-108.714424,-2.243076
1649274992.667939,1649274992.683819,85.000000,0.000000,4230.769043,4218.333496,4239.102539,4233.846191,4215.128418,4231.538574,4231.025879,4243.205078,4244.102539,4252.051270,4222.436035,4243.205078,4308.717773,4212.948730,3507.000000,1.000000,15.000000,,,,0.000000,4.000000,4.000000,4.000000,4.000000,4.000000,4.000000,4.000000,4.000000,4.000000,4.000000,4.000000,4.000000,4.000000,4.000000,100.000000,,,,,,,,,,,,,,,,,,,,,,,,,,,,
1649274992.675742,1649274992.691622,86.000000,0.000000,4242.692383,4230.897461,4244.743652,4246.666504,4215.512695,4229.230957,4235.384766,4232.948730,4231.153809,4257.820313,4224.615234,4238.205078,4318.333496,4203.589844,3617.000000,1.000000,15.000000,,,,0.000000,4.000000,4.000000,4.000000,4.000000,4.000000,4.000000,4.000000,4.000000,4.000000,4.000000,4.000000,4.000000,4.000000,4.000000,100.000000,,,,,,,,,,,,,,,,,,,,,,,,,,,,
1649274992.683545,1649274992.699425,87.000000,0.000000,4238.589844,4219.871582,4236.153809,4245.512695,4235.769043,4229.871582,4239.871582,4225.384766,4225.897461,4257.307617,4226.153809,4238.333496,4315.128418,4204.230957,3619.000000,1.000000,15.000000,,,,0.000000,4.000000,4.000000,4.000000,4.000000,4.000000,4.000000,4.000000,4.000000,4.000000,4.000000,4.000000,4.000000,4.000000,4.000000,100.000000,,,,,,,,,,,,,,,,,,,,,,,,,,,,
1649274992.691348,1649274992.707128,88.000000,0.000000,4235.769043,4215.384766,4232.051270,4241.025879,4240.000000,4236.153809,4245.384766,4235.512695,4248.077148,4257.692383,4227.820313,4244.615234,4306.153809,4215.128418,3597.000000,1.000000,15.000000,,,,0.000000,4.000000,4.000000,4.000000,4.000000,4.000000,4.000000,4.000000,4.000000,4.000000,4.000000,4.000000,4.000000,4.000000,4.000000,100.000000,,,,,,,,,,,,,,,,,22.000000,0.000000,0.205490,0.563721,-0.471558,0.646240,0.930190,-0.385748,-0.072267,-34.692913,-110.209808,-1.943999
1649274992.699151,1649274992.714831,89.000000,0.000000,4237.436035,4218.974121,4234.615234,4239.871582,4232.948730,4235.128418,4245.128418,4242.436035,4262.820313,4271.025879,4243.333496,4249.487305,4322.692383,4219.358887,3507.000000,1.000000,15.000000,,,,0.000000,4.000000,4.000000,4.000000,4.000000,4.000000,4.000000,4.000000,4.000000,4.000000,4.000000,4.000000,4.000000,4.000000,4.000000,100.000000,,,,,,,,,,,,,,,,,,,,,,,,,,,,
1649274992.706954,1649274992.722634,90.000000,0.000000,4234.487305,4216.025879,4232.179688,4235.769043,4216.153809,4232.820313,4241.922852,4231.794922,4244.487305,4270.769043,4261.922852,4251.025879,4339.487305,4221.794922,3617.000000,1.000000,15.000000,,,,0.000000,4.000000,4.000000,4.000000,4.000000,4.000000,4.000000,4.000000,4.000000,4.000000,4.000000,4.000000,4.000000,4.000000,4.000000,100.000000,,,,,,,,,,,,,,,,,,,,,,,,,,,,
1649274992.714757,1649274992.730437,91.000000,0.000000,4239.230957,4220.000000,4237.307617,4238.077148,4208.205078,4234.230957,4237.436035,4230.897461,4237.692383,4256.282227,4261.538574,4260.769043,4333.205078,4239.358887,3619.000000,1.000000,15.000000,,,,0.000000,4.000000,4.000000,4.000000,4.000000,4.000000,4.000000,4.000000,4.000000,4.000000,4.000000,4.000000,4.000000,4.000000,4.000000,100.000000,,,,,,,,,,,,,,,,,,,,,,,,,,,,
1649274992.722560,1649274992.738140,92.000000,0.000000,4249.358887,4223.333496,4248.589844,4246.666504,4226.538574,4234.615234,4225.256348,4232.563965,4248.974121,4259.230957,4247.051270,4264.743652,4324.615234,4241.794922,3597.000000,1.000000,15.000000,,,,0.000000,4.000000,4.000000,4.000000,4.000000,4.000000,4.000000,4.000000,4.000000,4.000000,4.000000,4.000000,4.000000,4.000000,4.000000,100.000000,,,,,,,,,,,,,,,,,23.000000,0.000000,0.205243,0.563843,-0.471436,0.646301,0.936049,-0.378424,-0.078126,-33.945221,-108.415352,-1.196307
1649274992.730363,1649274992.745843,93.000000,0.000000,4250.897461,4218.717773,4248.717773,4248.077148,4236.922852,4231.538574,4219.102539,4229.487305,4248.205078,4267.563965,4241.666504,4252.307617,4324.615234,4221.153809,3507.000000,1.000000,15.000000,,,,0.000000,4.000000,4.000000,4.000000,4.000000,4.000000,4.000000,4.000000,4.000000,4.000000,4.000000,4.000000,4.000000,4.000000,4.000000,100.000000,,,,,,,,,,,,,,,,,,,,,,,,,,,,
1649274992.738166,1649274992.753646,94.000000,0.000000,4245.384766,4222.307617,4243.717773,4247.051270,4231.666504,4232.051270,4231.922852,4247.436035,4256.282227,4265.641113,4245.256348,4246.282227,4324.487305,4214.743652,3617.000000,1.000000,15.000000,,,,0.000000,4.000000,4.000000,4.000000,4.000000,4.000000,4.000000,4.000000,4.000000,4.000000,4.000000,4.000000,4.000000,4.000000,4.000000,100.000000,,,,,,,,,,,,,,,,,,,,,,,,,,,,
1649274992.745969,1649274992.761449,95.000000,0.000000,4240.641113,4227.051270,4240.897461,4244.230957,4235.128418,4240.641113,4245.512695,4265.000000,4266.922852,4266.153809,4233.974121,4245.769043,4317.948730,4221.025879,3619.000000,1.000000,15.000000,,,,0.000000,4.000000,4.000000,4.000000,4.000000,4.000000,4.000000,4.000000,4.000000,4.000000,4.000000,4.000000,4.000000,4.000000,4.000000,100.000000,,,,,,,,,,,,,,,,,,,,,,,,,,,,
1649274992.753772,1649274992.769152,96.000000,0.000000,4232.948730,4225.128418,4238.205078,4242.179688,4238.205078,4248.461426,4249.358887,4255.384766,4246.794922,4262.820313,4224.743652,4236.153809,4310.641113,4214.871582,3597.000000,1.000000,15.000000,,,,0.000000,4.000000,4.000000,4.000000,4.000000,4.000000,4.000000,4.000000,4.000000,4.000000,4.000000,4.000000,4.000000,4.000000,4.000000,100.000000,,,,,,,,,,,,,,,,,24.000000,0.000000,0.205383,0.563843,-0.471375,0.646301,0.933120,-0.382818,-0.071290,-33.047989,-109.163040,-2.691691
1649274992.761576,1649274992.776855,97.000000,0.000000,4232.820313,4226.153809,4240.000000,4250.384766,4233.589844,4248.077148,4251.666504,4245.512695,4230.384766,4253.461426,4240.512695,4241.410156,4309.871582,4211.794922,3507.000000,1.000000,15.000000,,,,0.000000,4.000000,4.000000,4.000000,4.000000,4.000000,4.000000,4.000000,4.000000,4.000000,4.000000,4.000000,4.000000,4.000000,4.000000,100.000000,,,,,,,,,,,,,,,,,,,,,,,,,,,,
1649274992.769379,1649274992.784658,98.000000,0.000000,4241.794922,4225.512695,4246.922852,4250.128418,4235.256348,4245.384766,4260.641113,4253.333496,4244.487305,4247.179688,4246.666504,4260.769043,4313.846191,4225.512695,3617.000000,1.000000,15.000000,,,,0.000000,4.000000,4.000000,4.000000,4.000000,4.000000,4.000000,4.000000,4.000000,4.000000,4.000000,4.000000,4.000000,4.000000,4.000000,100.000000,,,,,,,,,,,,,,,,,,,,,,,,,,,,
1649274992.777182,1649274992.792461,99.000000,0.000000,4242.179688,4213.846191,4249.230957,4232.692383,4235.128418,4250.256348,4271.410156,4253.205078,4245.641113,4237.563965,4228.846191,4258.717773,4309.487305,4231.538574,3619.000000,1.000000,15.000000,,,,0.000000,4.000000,4.000000,4.000000,4.000000,4.000000,4.000000,4.000000,4.000000,4.000000,4.000000,4.000000,4.000000,4.000000,4.000000,100.000000,,,,,,,,,,,,,,,,,,,,,,,,,,,,
1649274992.784985,1649274992.800164,100.000000,0.000000,4240.512695,4214.615234,4248.077148,4228.589844,4228.333496,4252.051270,4258.846191,4237.563965,4230.000000,4230.000000,4228.205078,4252.820313,4311.025879,4228.717773,3597.000000,1.000000,15.000000,,,,0.000000,4.000000,4.000000,4.000000,4.000000,4.000000,4.000000,4.000000,4.000000,4.000000,4.000000,4.000000,4.000000,4.000000,4.000000,100.000000,,,,,,,,,,,,,,,,,25.000000,0.000000,0.205272,0.564087,-0.471130,0.646301,0.924331,-0.384771,-0.073243,-34.543373,-108.564888,-1.046769
1649274992.792788,1649274992.807867,101.000000,0.000000,4247.692383,4231.410156,4248.717773,4246.538574,4227.563965,4242.051270,4230.128418,4224.743652,4232.307617,4232.179688,4243.077148,4261.666504,4324.743652,4230.384766,3507.000000,1.000000,15.000000,,,,0.000000,4.000000,4.000000,4.000000,4.000000,4.000000,4.000000,4.000000,4.000000,4.000000,4.000000,4.000000,4.000000,4.000000,4.000000,100.000000,,,,,,,,,,,,,,,,,,,,,,,,,,,,
1649274992.800591,1649274992.815670,102.000000,0.000000,4254.871582,4221.666504,4251.538574,4252.179688,4230.384766,4238.974121,4231.410156,4226.538574,4237.179688,4235.000000,4237.948730,4259.487305,4312.563965,4228.205078,3617.000000,1.000000,15.000000,,,,0.000000,4.000000,4.000000,4.000000,4.000000,4.000000,4.000000,4.000000,4.000000,4.000000,4.000000,4.000000,4.000000,4.000000,4.000000,100.000000,,,,,,,,,,,,,,,,,,,,,,,,,,,,
1649274992.808394,1649274992.823473,103.000000,0.000000,4245.128418,4200.512695,4246.666504,4239.743652,4232.307617,4248.333496,4256.025879,4240.641113,4237.563965,4238.589844,4226.410156,4247.436035,4289.358887,4225.897461,3619.000000,1.000000,15.000000,,,,0.000000,4.000000,4.000000,4.000000,4.000000,4.000000,4.000000,4.000000,4.000000,4.000000,4.000000,4.000000,4.000000,4.000000,4.000000,100.000000,,,,,,,,,,,,,,,,,,,,,,,,,,,,
1649274992.816197,1649274992.831176,104.000000,0.000000,4235.769043,4219.487305,4237.051270,4241.538574,4234.615234,4248.077148,4249.871582,4241.794922,4243.589844,4244.487305,4235.384766,4250.128418,4302.692383,4230.384766,3597.000000,1.000000,15.000000,,,,0.000000,4.000000,4.000000,4.000000,4.000000,4.000000,4.000000,4.000000,4.000000,4.000000,4.000000,4.000000,4.000000,4.000000,4.000000,100.000000,,,,,,,,,,,,,,,,,26.000000,0.000000,0.204889,0.564392,-0.470764,0.646423,0.917494,-0.377935,-0.079591,-34.842449,-108.863968,-3.289845
1649274992.824000,1649274992.838979,105.000000,0.000000,4240.000000,4241.282227,4233.205078,4251.538574,4229.487305,4241.282227,4234.871582,4233.205078,4246.025879,4242.051270,4240.000000,4252.820313,4319.743652,4223.974121,3507.000000,1.000000,15.000000,,,,0.000000,4.000000,4.000000,4.000000,4.000000,4.000000,4.000000,4.000000,4.000000,4.000000,4.000000,4.000000,4.000000,4.000000,4.000000,100.000000,,,,,,,,,,,,,,,,,,,,,,,,,,,,
1649274992.831803,1649274992.846782,106.000000,0.000000,4237.051270,4221.666504,4230.128418,4240.384766,4236.025879,4243.974121,4245.641113,4233.205078,4240.641113,4226.410156,4227.307617,4242.179688,4303.974121,4207.563965,3617.000000,1.000000,15.000000,,,,0.000000,4.000000,4.000000,4.000000,4.000000,4.000000,4.000000,4.000000,4.000000,4.000000,4.000000,4.000000,4.000000,4.000000,4.000000,100.000000,,,,,,,,,,,,,,,,,,,,,,,,,,,,
1649274992.839606,1649274992.854485,107.000000,0.000000,4233.846191,4217.692383,4234.615234,4236.153809,4251.410156,4236.025879,4242.563965,4236.794922,4238.461426,4222.436035,4230.897461,4245.769043,4301.410156,4214.487305,3619.000000,1.000000,15.000000,,,,0.000000,4.000000,4.000000,4.000000,4.000000,4.000000,4.000000,4.000000,4.000000,4.000000,4.000000,4.000000,4.000000,4.000000,4.000000,100.000000,,,,,,,,,,,,,,,,,,,,,,,,,,,,
1649274992.847409,1649274992.862188,108.000000,0.000000,4233.717773,4232.307617,4237.436035,4244.230957,4233.717773,4225.641113,4233.333496,4231.282227,4229.615234,4225.641113,4235.256348,4250.897461,4309.358887,4219.615234,3597.000000,1.000000,15.000000,,,,0.000000,4.000000,4.000000,4.000000,4.000000,4.000000,4.000000,4.000000,4.000000,4.000000,4.000000,4.000000,4.000000,4.000000,4.000000,100.000000,0.976563,91.666664,4.000000,4.000000,4.000000,4.000000,4.000000,4.000000,4.000000,3.000000,4.000000,4.000000,4.000000,4.000000,4.000000,4.000000,27.000000,0.000000,0.204837,0.564697,-0.470337,0.646484,0.927749,-0.363775,-0.081544,-33.945221,-108.415352,-1.943999
1649274992.855212,1649274992.869891,109.000000,0.000000,4231.922852,4221.922852,4231.666504,4235.512695,4213.589844,4237.436035,4237.179688,4226.794922,4223.077148,4222.179688,4220.384766,4243.205078,4292.948730,4208.974121,3507.000000,1.000000,15.000000,,,,0.000000,4.000000,4.000000,4.000000,4.000000,4.000000,4.000000,4.000000,4.000000,4.000000,4.000000,4.000000,4.000000,4.000000,4.000000,100.000000,,,,,,,,,,,,,,,,,,,,,,,,,,,,
1649274992.863016,1649274992.877694,110.000000,0.000000,4239.743652,4220.128418,4236.025879,4234.487305,4241.153809,4246.410156,4230.769043,4242.179688,4247.948730,4231.666504,4222.692383,4246.538574,4288.589844,4219.743652,3617.000000,1.000000,15.000000,,,,0.000000,4.000000,4.000000,4.000000,4.000000,4.000000,4.000000,4.000000,4.000000,4.000000,4.000000,4.000000,4.000000,4.000000,4.000000,100.000000,,,,,,,,,,,,,,,,,,,,,,,,,,,,
1649274992.870819,1649274992.885397,111.000000,0.000000,4252.563965,4231.922852,4249.743652,4251.282227,4258.717773,4246.410156,4233.589844,4256.025879,4271.410156,4247.179688,4237.948730,4260.128418,4308.461426,4239.230957,3619.000000,1.000000,15.000000,,,,0.000000,4.000000,4.000000,4.000000,4.000000,4.000000,4.000000,4.000000,4.000000,4.000000,4.000000,4.000000,4.000000,4.000000,4.000000,100.000000,,,,,,,,,,,,,,,,,,,,,,,,,,,,
1649274992.878622,1649274992.893200,112.000000,0.000000,4247.948730,4228.461426,4247.436035,4248.717773,4232.307617,4247.692383,4255.384766,4251.666504,4257.820313,4250.384766,4237.179688,4260.897461,4314.615234,4234.615234,3597.000000,1.000000,15.000000,,,,0.000000,4.000000,4.000000,4.000000,4.000000,4.000000,4.000000,4.000000,4.000000,4.000000,4.000000,4.000000,4.000000,4.000000,4.000000,100.000000,,,,,,,,,,,,,,,,,28.000000,0.000000,0.204509,0.565063,-0.469788,0.646667,0.925307,-0.374517,-0.083009,-33.646145,-107.817200,-1.794461
1649274992.886425,1649274992.900903,113.000000,0.000000,4237.051270,4228.846191,4237.436035,4243.846191,4229.230957,4241.666504,4256.282227,4248.333496,4244.743652,4251.794922,4236.922852,4253.974121,4306.794922,4217.692383,3507.000000,1.000000,15.000000,,,,0.000000,4.000000,4.000000,4.000000,4.000000,4.000000,4.000000,4.000000,4.000000,4.000000,4.000000,4.000000,4.000000,4.000000,4.000000,100.000000,,,,,,,,,,,,,,,,,,,,,,,,,,,,
1649274992.894228,1649274992.908706,114.000000,0.000000,4237.563965,4234.743652,4236.025879,4254.615234,4241.410156,4235.128418,4244.871582,4252.051270,4251.153809,4251.538574,4247.436035,4250.000000,4307.179688,4208.717773,3617.000000,1.000000,15.000000,,,,0.000000,4.000000,4.000000,4.000000,4.000000,4.000000,4.000000,4.000000,4.000000,4.000000,4.000000,4.000000,4.000000,4.000000,4.000000,100.000000,,,,,,,,,,,,,,,,,,,,,,,,,,,,
1649274992.902031,1649274992.916509,115.000000,0.000000,4235.256348,4224.871582,4234.102539,4251.025879,4238.846191,4247.563965,4261.410156,4250.512695,4246.153809,4243.846191,4248.077148,4245.897461,4311.794922,4208.205078,3619.000000,1.000000,15.000000,,,,0.000000,4.000000,4.000000,4.000000,4.000000,4.000000,4.000000,4.000000,4.000000,4.000000,4.000000,4.000000,4.000000,4.000000,4.000000,100.000000,,,,,,,,,,,,,,,,,,,,,,,,,,,,
1649274992.909834,1649274992.924212,116.000000,0.000000,4238.846191,4231.410156,4239.743652,4247.436035,4255.256348,4257.436035,4267.051270,4256.538574,4247.307617,4252.820313,4248.333496,4254.487305,4310.641113,4222.179688,3597.000000,1.000000,15.000000,,,,0.000000,4.000000,4.000000,4.000000,4.000000,4.000000,4.000000,4.000000,4.000000,4.000000,4.000000,4.000000,4.000000,4.000000,4.000000,100.000000,,,,,,,,,,,,,,,,,29.000000,0.000000,0.204092,0.565613,-0.469055,0.646851,0.932631,-0.373541,-0.061524,-33.945221,-107.966736,-2.691691
1649274992.917637,1649274992.931915,117.000000,0.000000,4249.615234,4252.563965,4249.102539,4264.102539,4262.051270,4242.179688,4244.615234,4270.897461,4271.282227,4268.077148,4250.128418,4266.922852,4307.179688,4234.871582,3507.000000,1.000000,15.000000,,,,0.000000,4.000000,4.000000,4.000000,4.000000,4.000000,4.000000,4.000000,4.000000,4.000000,4.000000,4.000000,4.000000,4.000000,4.000000,100.000000,,,,,,,,,,,,,,,,,,,,,,,,,,,,
1649274992.925440,1649274992.939618,118.000000,0.000000,4252.948730,4248.333496,4247.051270,4269.102539,4246.922852,4237.307617,4247.307617,4266.922852,4269.871582,4263.077148,4248.974121,4263.333496,4314.871582,4231.922852,3617.000000,1.000000,15.000000,,,,0.000000,4.000000,4.000000,4.000000,4.000000,4.000000,4.000000,4.000000,4.000000,4.000000,4.000000,4.000000,4.000000,4.000000,4.000000,100.000000,,,,,,,,,,,,,,,,,,,,,,,,,,,,
