Timestamp,OriginalTimestamp,EEG.Counter,EEG.Interpolated,EEG.AF3,EEG.F7,EEG.F3,EEG.FC5,EEG.T7,EEG.P7,EEG.O1,EEG.O2,EEG.P8,EEG.T8,EEG.FC6,EEG.F4,EEG.F8,EEG.AF4,EEG.RawCq,EEG.Battery,EEG.BatteryPercent,MarkerIndex,MarkerType,MarkerValueInt,EEG.MarkerHardware,CQ.AF3,CQ.F7,CQ.F3,CQ.FC5,CQ.T7,CQ.P7,CQ.O1,CQ.O2,CQ.P8,CQ.T8,CQ.FC6,CQ.F4,CQ.F8,CQ.AF4,CQ.Overall,EQ.SampleRateQuality,EQ.OVERALL,EQ.AF3,EQ.F7,EQ.F3,EQ.FC5,EQ.T7,EQ.P7,EQ.O1,EQ.O2,EQ.P8,EQ.T8,EQ.FC6,EQ.F4,EQ.F8,EQ.AF4,MOT.CounterMems,MOT.InterpolatedMems,MOT.Q0,MOT.Q1,MOT.Q2,MOT.Q3,MOT.AccX,MOT.AccY,MOT.AccZ,MOT.MagX,MOT.MagY,MOT.MagZ
1648680335,1648680335,127,0,4276.666504,4276.282227,4242.436035,4271.666504,4272.436035,4250.897461,4264.487305,4266.410156,4268.077148,4284.230957,4292.05127,4218.333496,4323.717773,4232.563965,55,3,73,,,,0,4,4,4,4,4,4,4,4,4,4,4,4,4,4,100,,,,,,,,,,,,,,,,,,,,,,,,,,,,
1648680335,1648680335,0,0,4283.205078,4280,4248.974121,4271.538574,4276.538574,4255.769043,4267.94873,4271.153809,4268.717773,4284.230957,4293.461426,4223.077148,4314.871582,4237.05127,3594,3,73,,,,0,4,4,4,4,4,4,4,4,4,4,4,4,4,4,100,,,,,,,,,,,,,,,,,0,0,0.603619,0.144836,-0.717834,0.315247,0.966323,-0.270024,-0.081056,-28.412298,-100.041199,-6.729228
1648680335,1648680335,1,0,4289.743652,4289.615234,4260.769043,4280.897461,4286.922852,4269.487305,4274.871582,4276.666504,4275.256348,4299.230957,4300.128418,4235.256348,4327.307617,4247.179688,3582,3,73,,,,0,4,4,4,4,4,4,4,4,4,4,4,4,4,4,100,,,,,,,,,,,,,,,,,,,,,,,,,,,,
1648680335,1648680335,2,0,4280.897461,4286.666504,4255.897461,4281.538574,4286.410156,4269.102539,4278.589844,4275.128418,4275,4297.05127,4296.794922,4226.794922,4323.461426,4241.538574,3590,3,73,,,,0,4,4,4,4,4,4,4,4,4,4,4,4,4,4,100,,,,,,,,,,,,,,,,,,,,,,,,,,,,
1648680335,1648680335,3,0,4284.230957,4284.230957,4258.205078,4285.769043,4291.282227,4273.461426,4281.153809,4275,4273.589844,4288.717773,4296.666504,4222.692383,4318.205078,4241.025879,3067,3,73,,,,0,4,4,4,4,4,4,4,4,4,4,4,4,4,4,100,,,,,,,,,,,,,,,,,,,,,,,,,,,,
1648680335,1648680335,4,0,4281.282227,4278.461426,4253.974121,4281.922852,4281.794922,4265.384766,4267.307617,4265.897461,4264.743652,4282.05127,4288.974121,4219.743652,4316.794922,4236.025879,3626,3,73,,,,0,4,4,4,4,4,4,4,4,4,4,4,4,4,4,100,,,,,,,,,,,,,,,,,1,0,0.603916,0.145264,-0.717712,0.314758,0.96144,-0.261234,-0.080568,-29.608606,-100.041199,-6.280613
1648680335,1648680335,5,0,4281.282227,4283.974121,4255.256348,4280.641113,4282.05127,4265.897461,4269.487305,4277.692383,4278.333496,4293.333496,4294.487305,4225.897461,4325.384766,4239.487305,3600,3,73,,,,0,4,4,4,4,4,4,4,4,4,4,4,4,4,4,100,,,,,,,,,,,,,,,,,,,,,,,,,,,,
1648680335,1648680335,6,0,4282.179688,4282.05127,4255.769043,4276.794922,4282.94873,4264.230957,4268.974121,4275.769043,4280.512695,4293.205078,4302.563965,4230.897461,4325.512695,4245.897461,3378,3,73,,,,0,4,4,4,4,4,4,4,4,4,4,4,4,4,4,100,,,,,,,,,,,,,,,,,,,,,,,,,,,,
1648680335,1648680335,7,0,4302.05127,4288.333496,4272.307617,4294.102539,4292.820313,4271.282227,4272.563965,4273.077148,4285.128418,4307.307617,4324.102539,4249.871582,4342.179688,4268.974121,3570,3,73,,,,0,4,4,4,4,4,4,4,4,4,4,4,4,4,4,100,,,,,,,,,,,,,,,,,,,,,,,,,,,,
1648680335,1648680335,8,0,4307.563965,4296.666504,4276.538574,4301.025879,4297.436035,4276.282227,4278.461426,4283.205078,4297.563965,4318.461426,4329.615234,4251.538574,4347.05127,4271.922852,3565,3,73,,,,0,4,4,4,4,4,4,4,4,4,4,4,4,4,4,100,,,,,,,,,,,,,,,,,2,0,0.604001,0.146057,-0.717346,0.315063,0.963882,-0.267094,-0.089357,-28.26276,-100.190735,-7.327382
1648680335,1648680335,9,0,4301.538574,4299.230957,4273.333496,4294.487305,4299.102539,4279.871582,4288.846191,4289.487305,4300.897461,4316.153809,4324.871582,4247.179688,4338.461426,4266.410156,3591,3,73,,,,0,4,4,4,4,4,4,4,4,4,4,4,4,4,4,100,,,,,,,,,,,,,,,,,,,,,,,,,,,,
1648680335,1648680335,10,0,4287.307617,4277.05127,4256.922852,4279.487305,4279.615234,4258.077148,4275.512695,4260.256348,4276.153809,4297.94873,4307.436035,4237.692383,4324.230957,4254.743652,3599,3,73,,,,0,4,4,4,4,4,4,4,4,4,4,4,4,4,4,100,,,,,,,,,,,,,,,,,,,,,,,,,,,,
1648680335,1648680335,11,0,4288.589844,4269.358887,4252.05127,4282.436035,4271.282227,4245.641113,4270,4253.077148,4268.846191,4289.743652,4302.05127,4231.922852,4318.333496,4250.512695,3611,3,73,,,,0,4,4,4,4,4,4,4,4,4,4,4,4,4,4,100,,,,,,,,,,,,,,,,,,,,,,,,,,,,
1648680335,1648680335,12,0,4291.922852,4276.410156,4259.615234,4285.897461,4273.846191,4250.641113,4276.666504,4270.769043,4275.128418,4288.974121,4306.410156,4228.333496,4309.615234,4249.358887,3625,3,73,,,,0,4,4,4,4,4,4,4,4,4,4,4,4,4,4,100,,,,,,,,,,,,,,,,,3,0,0.604021,0.147217,-0.716797,0.315735,0.958999,-0.271,-0.076661,-28.412298,-99.592583,-4.934768
1648680335,1648680335,13,0,4282.307617,4277.820313,4253.974121,4277.436035,4271.538574,4250.769043,4275.128418,4260.769043,4261.794922,4279.487305,4298.846191,4219.230957,4299.871582,4240.641113,3621,3,73,,,,0,4,4,4,4,4,4,4,4,4,4,4,4,4,4,100,,,,,,,,,,,,,,,,,,,,,,,,,,,,
1648680335,1648680335,14,0,4280.512695,4279.615234,4248.461426,4280.256348,4275.769043,4254.871582,4278.077148,4258.717773,4261.410156,4276.922852,4290.769043,4218.846191,4303.846191,4237.179688,3599,3,73,,,,0,4,4,4,4,4,4,4,4,4,4,4,4,4,4,100,,,,,,,,,,,,,,,,,,,,,,,,,,,,
1648680335,1648680335,15,0,4290.256348,4285.128418,4260.128418,4289.230957,4281.794922,4262.179688,4285.769043,4286.794922,4288.205078,4286.666504,4297.179688,4230.256348,4313.461426,4246.153809,3611,3,73,,,,0,4,4,4,4,4,4,4,4,4,4,4,4,4,4,100,,,,,,,,,,,,,,,,,,,,,,,,,,,,
1648680335,1648680335,16,0,4293.333496,4283.974121,4266.025879,4287.692383,4278.846191,4257.307617,4279.743652,4286.282227,4290.769043,4292.563965,4303.333496,4232.563965,4311.794922,4252.94873,0,3,73,,,,0,4,4,4,4,4,4,4,4,4,4,4,4,4,4,100,,,,,,,,,,,,,,,,,4,0,0.60444,0.14679,-0.71637,0.316101,0.968277,-0.303716,-0.068849,-26.767376,-99.29351,-6.729228
1648680335,1648680335,17,0,4283.846191,4277.692383,4250.384766,4275.897461,4272.307617,4248.974121,4265.897461,4247.563965,4257.94873,4276.410156,4290,4219.743652,4298.333496,4243.461426,0,3,73,,,,0,4,4,4,4,4,4,4,4,4,4,4,4,4,4,100,,,,,,,,,,,,,,,,,,,,,,,,,,,,
1648680335,1648680335,18,0,4289.487305,4282.563965,4252.563965,4282.179688,4278.589844,4259.743652,4270.769043,4249.487305,4260.641113,4277.94873,4292.179688,4229.615234,4308.974121,4249.358887,0,3,73,,,,0,4,4,4,4,4,4,4,4,4,4,4,4,4,4,100,,,,,,,,,,,,,,,,,,,,,,,,,,,,
1648680335,1648680335,19,0,4288.461426,4283.205078,4257.307617,4280.256348,4272.692383,4255.384766,4269.871582,4265.769043,4279.487305,4289.102539,4296.282227,4232.692383,4312.05127,4248.589844,0,3,73,,,,0,4,4,4,4,4,4,4,4,4,4,4,4,4,4,100,,,,,,,,,,,,,,,,,,,,,,,,,,,,
1648680335,1648680335,20,0,4286.025879,4285.641113,4256.666504,4279.743652,4276.538574,4255.384766,4277.307617,4272.05127,4287.692383,4296.922852,4299.871582,4227.307617,4298.077148,4246.025879,0,3,73,,,,0,4,4,4,4,4,4,4,4,4,4,4,4,4,4,100,,,,,,,,,,,,,,,,,5,0,0.604821,0.145935,-0.716492,0.315491,0.980972,-0.29688,-0.060548,-29.309528,-101.686119,-6.878767
1648680335,1648680335,21,0,4275.897461,4276.025879,4241.153809,4271.282227,4274.871582,4254.230957,4279.615234,4262.307617,4274.615234,4280.128418,4286.538574,4213.205078,4276.410156,4236.538574,0,3,73,,,,0,4,4,4,4,4,4,4,4,4,4,4,4,4,4,100,,,,,,,,,,,,,,,,,,,,,,,,,,,,
1648680335,1648680335,22,0,4281.538574,4275.256348,4244.743652,4271.153809,4275.384766,4255.897461,4275.641113,4266.666504,4278.717773,4274.743652,4282.94873,4217.94873,4287.436035,4241.025879,0,3,73,,,,0,4,4,4,4,4,4,4,4,4,4,4,4,4,4,100,,,,,,,,,,,,,,,,,,,,,,,,,,,,
1648680335,1648680335,23,0,4285,4278.077148,4250.128418,4272.436035,4275,4254.871582,4265.641113,4273.461426,4286.153809,4281.538574,4287.692383,4222.563965,4297.179688,4245,0,3,73,,,,0,4,4,4,4,4,4,4,4,4,4,4,4,4,4,100,,,,,,,,,,,,,,,,,,,,,,,,,,,,
1648680335,1648680336,24,0,4287.820313,4281.538574,4254.871582,4279.615234,4281.538574,4263.077148,4269.102539,4285.769043,4294.487305,4292.94873,4300.512695,4227.179688,4299.102539,4252.692383,0,3,73,,,,0,4,4,4,4,4,4,4,4,4,4,4,4,4,4,100,,,,,,,,,,,,,,,,,6,0,0.604651,0.145447,-0.717163,0.314514,0.973159,-0.272465,-0.054688,-28.561836,-100.190735,-6.57969
1648680335,1648680336,25,0,4283.205078,4274.230957,4249.615234,4274.487305,4271.410156,4254.743652,4260,4276.538574,4286.282227,4285.128418,4293.846191,4222.05127,4288.589844,4251.153809,0,3,73,,,,0,4,4,4,4,4,4,4,4,4,4,4,4,4,4,100,,,,,,,,,,,,,,,,,,,,,,,,,,,,
1648680336,1648680336,26,0,4295.128418,4285.384766,4259.487305,4282.179688,4275.384766,4256.025879,4260.897461,4275.256348,4291.922852,4289.358887,4295.128418,4231.153809,4295.384766,4260.128418,0,3,73,,,,0,4,4,4,4,4,4,4,4,4,4,4,4,4,4,100,,,,,,,,,,,,,,,,,,,,,,,,,,,,
1648680336,1648680336,27,0,4300.769043,4288.846191,4262.436035,4286.153809,4280.641113,4259.358887,4264.487305,4280.512695,4299.102539,4294.743652,4303.589844,4235.641113,4298.077148,4264.230957,0,3,73,,,,0,4,4,4,4,4,4,4,4,4,4,4,4,4,4,100,,,,,,,,,,,,,,,,,,,,,,,,,,,,
1648680336,1648680336,28,0,4292.436035,4279.102539,4253.589844,4277.820313,4271.922852,4252.05127,4259.102539,4271.922852,4287.94873,4289.102539,4305,4231.153809,4287.820313,4259.615234,0,3,73,,,,0,4,4,4,4,4,4,4,4,4,4,4,4,4,4,100,,,,,,,,,,,,,,,,,7,0,0.604553,0.145874,-0.717346,0.314087,0.967788,-0.255375,-0.07129,-30.20676,-99.443047,-6.878767
1648680336,1648680336,29,0,4292.307617,4281.922852,4257.436035,4278.461426,4273.333496,4254.102539,4257.563965,4268.333496,4283.205078,4291.410156,4306.410156,4235.641113,4289.230957,4264.230957,0,3,73,,,,0,4,4,4,4,4,4,4,4,4,4,4,4,4,4,100,1,91.666664,4,4,4,4,4,4,4,4,4,4,4,4,3,4,,,,,,,,,,,,
1648680336,1648680336,30,0,4297.307617,4289.615234,4261.153809,4286.153809,4283.333496,4263.205078,4264.743652,4276.794922,4289.358887,4293.461426,4302.820313,4237.179688,4294.615234,4268.205078,0,3,73,,,,0,4,4,4,4,4,4,4,4,4,4,4,4,4,4,100,,,,,,,,,,,,,,,,,,,,,,,,,,,,
1648680336,1648680336,31,0,4297.692383,4285.384766,4260.384766,4287.307617,4285.128418,4260.769043,4269.102539,4279.615234,4290.256348,4288.077148,4299.871582,4235.128418,4289.358887,4266.538574,0,3,73,,,,0,4,4,4,4,4,4,4,4,4,4,4,4,4,4,100,,,,,,,,,,,,,,,,,,,,,,,,,,,,
1648680336,1648680336,32,0,4295.897461,4284.871582,4260.641113,4285,4284.871582,4255.641113,4267.05127,4270.769043,4280.384766,4280.128418,4300.384766,4235.128418,4283.846191,4265.256348,0,3,73,,,,0,4,4,4,4,4,4,4,4,4,4,4,4,4,4,100,,,,,,,,,,,,,,,,,8,0,0.603983,0.147217,-0.717285,0.314697,0.964858,-0.264652,-0.098146,-29.010452,-99.143967,-6.57969
1648680336,1648680336,33,0,4298.974121,4290.897461,4262.179688,4287.307617,4291.538574,4264.487305,4269.230957,4274.615234,4283.333496,4281.282227,4300.769043,4235.641113,4291.538574,4269.615234,0,3,73,,,,0,4,4,4,4,4,4,4,4,4,4,4,4,4,4,100,,,,,,,,,,,,,,,,,,,,,,,,,,,,
1648680336,1648680336,34,0,4288.717773,4277.05127,4249.743652,4276.282227,4280.897461,4263.333496,4264.358887,4270.256348,4281.153809,4274.743652,4285.512695,4221.538574,4278.333496,4258.333496,0,3,73,,,,0,4,4,4,4,4,4,4,4,4,4,4,4,4,4,100,,,,,,,,,,,,,,,,,,,,,,,,,,,,
1648680336,1648680336,35,0,4288.717773,4275.641113,4251.410156,4279.871582,4280.512695,4262.563965,4267.563965,4268.077148,4280.769043,4281.410156,4283.589844,4222.820313,4271.538574,4255.512695,0,3,73,,,,0,4,4,4,4,4,4,4,4,4,4,4,4,4,4,100,,,,,,,,,,,,,,,,,,,,,,,,,,,,
1648680336,1648680336,36,0,4282.692383,4281.025879,4244.743652,4278.974121,4275.384766,4248.205078,4259.102539,4260.897461,4269.871582,4274.871582,4275.512695,4217.179688,4263.846191,4246.666504,0,3,73,,,,0,4,4,4,4,4,4,4,4,4,4,4,4,4,4,100,,,,,,,,,,,,,,,,,9,0,0.603691,0.148254,-0.717102,0.315186,0.945815,-0.280278,-0.106447,-30.356298,-99.29351,-5.68246
1648680336,1648680336,37,0,4281.922852,4280.641113,4239.743652,4275.769043,4272.563965,4248.589844,4259.487305,4265,4272.05127,4273.333496,4274.615234,4214.487305,4257.563965,4246.794922,0,3,73,,,,0,4,4,4,4,4,4,4,4,4,4,4,4,4,4,100,,,,,,,,,,,,,,,,,,,,,,,,,,,,
1648680336,1648680336,38,0,4272.307617,4264.615234,4233.461426,4262.94873,4265.512695,4246.538574,4256.282227,4259.102539,4270.128418,4272.307617,4271.153809,4206.794922,4248.077148,4243.461426,0,3,73,,,,0,4,4,4,4,4,4,4,4,4,4,4,4,4,4,100,,,,,,,,,,,,,,,,,,,,,,,,,,,,
1648680336,1648680336,39,0,4270.641113,4265.897461,4236.025879,4264.487305,4268.974121,4243.717773,4256.794922,4261.922852,4274.743652,4274.615234,4271.666504,4208.974121,4251.410156,4243.846191,0,3,73,,,,0,4,4,4,4,4,4,4,4,4,4,4,4,4,4,100,,,,,,,,,,,,,,,,,,,,,,,,,,,,
1648680336,1648680336,40,0,4265.897461,4263.846191,4231.282227,4259.487305,4261.794922,4236.538574,4256.153809,4267.05127,4281.025879,4268.974121,4264.871582,4207.436035,4244.615234,4238.205078,0,3,73,,,,0,4,4,4,4,4,4,4,4,4,4,4,4,4,4,100,,,,,,,,,,,,,,,,,10,0,0.603938,0.14917,-0.716248,0.316223,0.957534,-0.323247,-0.089357,-28.711376,-97.798126,-5.233844
1648680336,1648680336,41,0,4270.256348,4261.282227,4232.820313,4256.153809,4262.692383,4241.410156,4266.922852,4268.205078,4281.794922,4268.846191,4270.512695,4209.871582,4238.461426,4241.794922,0,3,73,,,,0,4,4,4,4,4,4,4,4,4,4,4,4,4,4,100,,,,,,,,,,,,,,,,,,,,,,,,,,,,
1648680336,1648680336,42,0,4272.179688,4255.384766,4231.410156,4255.897461,4265,4240.897461,4265.641113,4255.384766,4263.205078,4261.410156,4270.641113,4206.666504,4232.94873,4241.922852,0,3,73,,,,0,4,4,4,4,4,4,4,4,4,4,4,4,4,4,100,,,,,,,,,,,,,,,,,,,,,,,,,,,,
1648680336,1648680336,43,0,4279.487305,4260.128418,4240,4264.487305,4267.820313,4247.307617,4267.307617,4259.102539,4265.641113,4263.846191,4272.436035,4215.641113,4235.897461,4247.563965,0,3,73,,,,0,4,4,4,4,4,4,4,4,4,4,4,4,4,4,100,,,,,,,,,,,,,,,,,,,,,,,,,,,,
1648680336,1648680336,44,0,4282.820313,4265.769043,4246.282227,4264.615234,4266.538574,4250.769043,4271.538574,4269.487305,4283.461426,4270.512695,4277.820313,4225.897461,4235.897461,4252.307617,0,3,73,,,,0,4,4,4,4,4,4,4,4,4,4,4,4,4,4,100,,,,,,,,,,,,,,,,,11,0,0.605102,0.148254,-0.715454,0.316223,0.957534,-0.285161,-0.055665,-29.758144,-100.489815,-6.131075
1648680336,1648680336,45,0,4277.05127,4264.102539,4239.358887,4256.922852,4263.717773,4241.410156,4267.436035,4266.282227,4278.974121,4262.436035,4273.205078,4218.205078,4229.487305,4246.922852,0,3,73,,,,0,4,4,4,4,4,4,4,4,4,4,4,4,4,4,100,,,,,,,,,,,,,,,,,,,,,,,,,,,,
1648680336,1648680336,46,0,4276.282227,4254.615234,4234.743652,4255.256348,4263.205078,4238.974121,4266.025879,4265.769043,4273.461426,4258.077148,4269.871582,4214.102539,4223.333496,4245.256348,0,3,73,,,,0,4,4,4,4,4,4,4,4,4,4,4,4,4,4,100,,,,,,,,,,,,,,,,,,,,,,,,,,,,
1648680336,1648680336,47,0,4274.358887,4246.025879,4233.974121,4252.692383,4258.589844,4241.410156,4268.333496,4267.307617,4279.102539,4263.077148,4274.358887,4217.179688,4210.897461,4248.077148,0,3,73,,,,0,4,4,4,4,4,4,4,4,4,4,4,4,4,4,100,,,,,,,,,,,,,,,,,,,,,,,,,,,,
1648680336,1648680336,48,0,4268.846191,4248.846191,4235.256348,4253.717773,4257.307617,4239.615234,4267.436035,4268.717773,4280.769043,4267.436035,4277.179688,4215.384766,4204.102539,4245.769043,0,3,73,,,,0,4,4,4,4,4,4,4,4,4,4,4,4,4,4,100,,,,,,,,,,,,,,,,,12,0,0.606314,0.146851,-0.715149,0.315247,0.99025,-0.257816,-0.052247,-28.412298,-101.835663,-5.233844
1648680336,1648680336,49,0,4261.025879,4249.615234,4228.589844,4251.410156,4257.436035,4239.102539,4265.256348,4261.153809,4266.538574,4254.871582,4255.641113,4199.102539,4204.358887,4230.256348,0,3,73,,,,0,4,4,4,4,4,4,4,4,4,4,4,4,4,4,100,,,,,,,,,,,,,,,,,,,,,,,,,,,,
1648680336,1648680336,50,0,4263.846191,4250.256348,4227.436035,4252.820313,4267.94873,4254.615234,4276.922852,4262.820313,4264.871582,4252.179688,4247.563965,4198.974121,4208.717773,4230.128418,0,3,73,,,,0,4,4,4,4,4,4,4,4,4,4,4,4,4,4,100,,,,,,,,,,,,,,,,,,,,,,,,,,,,
1648680336,1648680336,51,0,4255.512695,4241.666504,4220.256348,4244.358887,4263.205078,4256.153809,4275.769043,4263.717773,4261.794922,4245.128418,4245.128418,4196.025879,4191.794922,4226.666504,0,3,73,,,,0,4,4,4,4,4,4,4,4,4,4,4,4,4,4,100,,,,,,,,,,,,,,,,,,,,,,,,,,,,
1648680336,1648680336,52,0,4256.794922,4243.461426,4226.794922,4248.333496,4260.128418,4257.307617,4275.769043,4283.205078,4279.230957,4252.436035,4253.333496,4199.743652,4195.256348,4231.153809,0,3,73,,,,0,4,4,4,4,4,4,4,4,4,4,4,4,4,4,100,,,,,,,,,,,,,,,,,13,0,0.60695,0.145752,-0.71521,0.314392,0.988296,-0.261234,-0.048829,-28.711376,-100.041199,-5.981536
1648680336,1648680336,53,0,4255.128418,4242.692383,4223.205078,4245.769043,4252.692383,4250.769043,4274.743652,4289.743652,4292.307617,4262.692383,4259.487305,4199.102539,4193.846191,4228.461426,0,3,73,,,,0,4,4,4,4,4,4,4,4,4,4,4,4,4,4,100,,,,,,,,,,,,,,,,,,,,,,,,,,,,
1648680336,1648680336,54,0,4265.384766,4250.769043,4228.333496,4252.307617,4260,4252.05127,4277.692383,4280.512695,4290.128418,4277.05127,4276.666504,4211.538574,4186.666504,4238.461426,0,3,73,,,,0,4,4,4,4,4,4,4,4,4,4,4,4,4,4,100,,,,,,,,,,,,,,,,,,,,,,,,,,,,
1648680336,1648680336,55,0,4267.94873,4249.871582,4234.743652,4254.871582,4260.641113,4244.358887,4265.897461,4260.897461,4273.717773,4271.282227,4277.820313,4219.358887,4189.102539,4244.615234,0,3,73,,,,0,4,4,4,4,4,4,4,4,4,4,4,4,4,4,100,,,,,,,,,,,,,,,,,,,,,,,,,,,,
1648680336,1648680336,56,0,4266.538574,4248.974121,4236.794922,4255,4258.205078,4241.794922,4258.974121,4261.538574,4273.333496,4260.128418,4268.589844,4221.025879,4205.512695,4244.871582,0,3,73,,,,0,4,4,4,4,4,4,4,4,4,4,4,4,4,4,100,,,,,,,,,,,,,,,,,14,0,0.607029,0.145447,-0.715393,0.313965,0.983902,-0.234379,-0.07422,-29.758144,-99.143967,-5.084306
1648680336,1648680336,57,0,4257.692383,4242.436035,4223.974121,4243.077148,4246.666504,4229.615234,4250.128418,4261.282227,4267.179688,4245.128418,4253.974121,4204.615234,4192.563965,4231.922852,0,3,73,,,,0,4,4,4,4,4,4,4,4,4,4,4,4,4,4,100,,,,,,,,,,,,,,,,,,,,,,,,,,,,
1648680336,1648680336,58,0,4266.794922,4247.05127,4230.256348,4247.563965,4251.153809,4227.692383,4252.692383,4257.820313,4261.794922,4249.230957,4262.94873,4205.384766,4180.769043,4238.205078,0,3,73,,,,0,4,4,4,4,4,4,4,4,4,4,4,4,4,4,100,,,,,,,,,,,,,,,,,,,,,,,,,,,,
1648680336,1648680336,59,0,4274.358887,4251.153809,4243.589844,4258.846191,4255.512695,4233.974121,4257.179688,4258.077148,4261.666504,4259.102539,4270,4216.153809,4179.230957,4250.384766,0,3,73,,,,0,4,4,4,4,4,4,4,4,4,4,4,4,4,4,100,,,,,,,,,,,,,,,,,,,,,,,,,,,,
1648680336,1648680336,60,0,4267.307617,4247.179688,4239.615234,4255.384766,4249.102539,4234.487305,4256.282227,4262.307617,4258.846191,4252.05127,4258.461426,4213.333496,4167.05127,4243.077148,0,3,73,,,,0,4,4,4,4,4,4,4,4,4,4,4,4,4,4,100,,,,,,,,,,,,,,,,,15,0,0.606629,0.146545,-0.715454,0.314087,0.972671,-0.241703,-0.073243,-29.309528,-101.237503,-5.831998
1648680336,1648680336,61,0,4266.794922,4245.128418,4233.461426,4251.282227,4252.820313,4236.410156,4255.256348,4267.307617,4258.846191,4245.256348,4254.102539,4208.461426,4163.589844,4237.692383,0,3,73,,,,0,4,4,4,4,4,4,4,4,4,4,4,4,4,4,100,,,,,,,,,,,,,,,,,,,,,,,,,,,,
1648680336,1648680336,62,0,4271.922852,4248.846191,4236.282227,4255.641113,4264.102539,4249.487305,4261.282227,4269.615234,4265.128418,4248.589844,4259.871582,4209.871582,4173.717773,4245.384766,0,3,73,,,,0,4,4,4,4,4,4,4,4,4,4,4,4,4,4,100,,,,,,,,,,,,,,,,,,,,,,,,,,,,
1648680336,1648680336,63,0,4265.769043,4248.077148,4234.487305,4255.384766,4260.256348,4252.307617,4265.256348,4268.846191,4267.820313,4249.230957,4256.282227,4207.692383,4169.615234,4244.230957,0,3,73,,,,0,4,4,4,4,4,4,4,4,4,4,4,4,4,4,100,,,,,,,,,,,,,,,,,,,,,,,,,,,,
1648680336,1648680336,64,0,4251.922852,4239.871582,4221.153809,4244.230957,4246.666504,4234.743652,4254.871582,4260.512695,4257.820313,4235.897461,4243.333496,4197.436035,4150.128418,4230.128418,3633,3,73,,,,0,4,4,4,4,4,4,4,4,4,4,4,4,4,4,100,,,,,,,,,,,,,,,,,16,0,0.606157,0.147522,-0.715332,0.314819,0.97023,-0.270024,-0.069337,-28.561836,-100.190735,-5.831998
1648680336,1648680336,65,0,4257.307617,4240.641113,4223.589844,4245.384766,4250.128418,4233.974121,4248.205078,4258.589844,4255,4236.282227,4244.102539,4199.358887,4144.102539,4231.666504,3617,3,73,,,,0,4,4,4,4,4,4,4,4,4,4,4,4,4,4,100,,,,,,,,,,,,,,,,,,,,,,,,,,,,
1648680336,1648680336,66,0,4257.179688,4242.820313,4221.410156,4240.256348,4246.538574,4231.410156,4243.846191,4250.256348,4244.615234,4231.666504,4235.897461,4192.179688,4130.897461,4227.05127,3618,3,73,,,,0,4,4,4,4,4,4,4,4,4,4,4,4,4,4,100,,,,,,,,,,,,,,,,,,,,,,,,,,,,
1648680336,1648680336,67,0,4255.512695,4244.871582,4222.179688,4242.179688,4248.589844,4231.410156,4254.358887,4255.256348,4244.615234,4228.974121,4240.897461,4195.769043,4123.589844,4228.974121,3088,3,73,,,,0,4,4,4,4,4,4,4,4,4,4,4,4,4,4,100,,,,,,,,,,,,,,,,,,,,,,,,,,,,
1648680336,1648680336,68,0,4246.666504,4233.974121,4217.179688,4241.282227,4246.025879,4232.179688,4255.128418,4255,4240.641113,4220.256348,4243.077148,4194.615234,4121.666504,4229.102539,3650,3,73,,,,0,4,4,4,4,4,4,4,4,4,4,4,4,4,4,100,,,,,,,,,,,,,,,,,17,0,0.606077,0.1474,-0.71521,0.315308,0.982437,-0.287602,-0.057618,-29.010452,-100.489815,-6.878767
1648680336,1648680336,69,0,4259.102539,4244.230957,4226.794922,4252.307617,4257.692383,4249.487305,4262.179688,4266.538574,4251.922852,4232.94873,4245.512695,4199.358887,4144.743652,4237.94873,3616,3,73,,,,0,4,4,4,4,4,4,4,4,4,4,4,4,4,4,100,,,,,,,,,,,,,,,,,,,,,,,,,,,,
1648680336,1648680336,70,0,4270.641113,4259.102539,4233.974121,4256.025879,4264.871582,4253.717773,4261.538574,4270.769043,4254.743652,4243.205078,4245.769043,4202.436035,4148.974121,4240.256348,3395,3,73,,,,0,4,4,4,4,4,4,4,4,4,4,4,4,4,4,100,,,,,,,,,,,,,,,,,,,,,,,,,,,,
1648680336,1648680336,71,0,4276.025879,4265.897461,4242.94873,4262.94873,4272.05127,4261.922852,4267.05127,4275.641113,4260.641113,4253.589844,4262.820313,4214.871582,4151.538574,4250.512695,3605,3,73,,,,0,4,4,4,4,4,4,4,4,4,4,4,4,4,4,100,,,,,,,,,,,,,,,,,,,,,,,,,,,,
1648680336,1648680336,72,0,4272.94873,4258.205078,4244.102539,4267.436035,4273.717773,4270,4271.666504,4277.179688,4267.692383,4259.487305,4273.205078,4221.410156,4154.871582,4257.820313,3595,3,73,,,,0,4,4,4,4,4,4,4,4,4,4,4,4,4,4,100,,,,,,,,,,,,,,,,,18,0,0.60599,0.146545,-0.715271,0.315735,0.979507,-0.289555,-0.055177,-29.15999,-101.087967,-6.729228
1648680336,1648680336,73,0,4289.102539,4264.102539,4255.128418,4280.897461,4286.538574,4287.05127,4284.871582,4297.94873,4280.256348,4268.974121,4285.641113,4234.743652,4150.128418,4273.589844,3613,3,73,,,,0,4,4,4,4,4,4,4,4,4,4,4,4,4,4,100,,,,,,,,,,,,,,,,,,,,,,,,,,,,
1648680336,1648680336,74,0,4288.717773,4257.179688,4252.05127,4275.769043,4300.256348,4313.205078,4285.897461,4304.358887,4273.589844,4265.512695,4278.717773,4232.307617,4138.461426,4266.538574,3633,3,73,,,,0,4,4,4,4,4,4,4,4,4,4,4,4,4,4,100,,,,,,,,,,,,,,,,,,,,,,,,,,,,
1648680336,1648680336,75,0,4277.94873,4255.256348,4245.897461,4271.282227,4314.487305,4334.358887,4284.743652,4293.077148,4275.384766,4272.820313,4267.436035,4225.512695,4155.641113,4254.358887,3634,3,73,,,,0,4,4,4,4,4,4,4,4,4,4,4,4,4,4,100,,,,,,,,,,,,,,,,,,,,,,,,,,,,
1648680336,1648680336,76,0,4297.94873,4277.05127,4266.922852,4296.282227,4314.358887,4314.487305,4293.205078,4306.282227,4302.692383,4303.077148,4290.641113,4245.897461,4176.794922,4276.025879,3647,3,73,,,,0,4,4,4,4,4,4,4,4,4,4,4,4,4,4,100,,,,,,,,,,,,,,,,,19,0,0.605401,0.145996,-0.715881,0.315735,0.958022,-0.269535,-0.071778,-29.907682,-100.639351,-6.729228
1648680336,1648680336,77,0,4320.641113,4285,4285.256348,4315,4306.282227,4290.897461,4301.794922,4323.461426,4302.692383,4311.538574,4311.666504,4262.179688,4172.307617,4297.179688,3649,3,73,,,,0,4,4,4,4,4,4,4,4,4,4,4,4,4,4,100,,,,,,,,,,,,,,,,,,,,,,,,,,,,
1648680336,1648680336,78,0,4318.077148,4268.333496,4284.102539,4309.871582,4317.563965,4310.512695,4307.820313,4324.487305,4288.846191,4302.820313,4305.512695,4263.846191,4185.384766,4302.05127,3633,3,73,,,,0,4,4,4,4,4,4,4,4,4,4,4,4,4,4,100,,,,,,,,,,,,,,,,,,,,,,,,,,,,
1648680336,1648680336,79,0,4312.563965,4256.538574,4283.205078,4299.615234,4318.717773,4311.538574,4302.05127,4317.05127,4286.922852,4298.205078,4297.307617,4263.974121,4195.128418,4303.974121,3634,3,73,,,,0,4,4,4,4,4,4,4,4,4,4,4,4,4,4,100,,,,,,,,,,,,,,,,,,,,,,,,,,,,
1648680336,1648680336,80,0,4318.589844,4263.205078,4291.666504,4305.384766,4303.717773,4287.94873,4294.230957,4320.384766,4291.153809,4302.307617,4301.410156,4263.717773,4185.769043,4305.512695,3647,3,73,,,,0,4,4,4,4,4,4,4,4,4,4,4,4,4,4,100,,,,,,,,,,,,,,,,,20,0,0.604669,0.14624,-0.71637,0.315918,0.959976,-0.290532,-0.080568,-28.561836,-100.190735,-6.131075
1648680336,1648680336,81,0,4304.615234,4263.717773,4279.358887,4304.615234,4297.05127,4289.102539,4290.897461,4313.205078,4279.230957,4290.384766,4290.641113,4249.615234,4175.769043,4287.820313,3649,3,73,,,,0,4,4,4,4,4,4,4,4,4,4,4,4,4,4,100,,,,,,,,,,,,,,,,,,,,,,,,,,,,
1648680336,1648680336,82,0,4299.358887,4254.102539,4274.230957,4297.94873,4308.077148,4310.769043,4296.153809,4310.384766,4273.717773,4287.179688,4293.846191,4252.94873,4171.666504,4284.487305,3633,3,73,,,,0,4,4,4,4,4,4,4,4,4,4,4,4,4,4,100,,,,,,,,,,,,,,,,,,,,,,,,,,,,
1648680336,1648680336,83,0,4298.846191,4235.128418,4270.769043,4279.230957,4293.333496,4295.897461,4281.410156,4301.410156,4262.05127,4280.897461,4286.922852,4250,4151.282227,4283.461426,3634,3,73,,,,0,4,4,4,4,4,4,4,4,4,4,4,4,4,4,100,,,,,,,,,,,,,,,,,,,,,,,,,,,,
1648680336,1648680336,84,0,4296.922852,4244.358887,4273.205078,4282.05127,4290.128418,4294.487305,4282.692383,4306.282227,4264.230957,4279.102539,4273.205078,4244.487305,4149.230957,4284.871582,3647,3,73,,,,0,4,4,4,4,4,4,4,4,4,4,4,4,4,4,100,,,,,,,,,,,,,,,,,21,0,0.603863,0.146057,-0.716736,0.316711,0.965835,-0.307622,-0.075685,-28.711376,-98.545815,-7.476921
1648680336,1648680336,85,0,4281.410156,4255.641113,4265.641113,4282.820313,4293.205078,4299.487305,4288.974121,4306.153809,4264.230957,4271.922852,4264.230957,4238.333496,4139.743652,4273.974121,3649,3,73,,,,0,4,4,4,4,4,4,4,4,4,4,4,4,4,4,100,,,,,,,,,,,,,,,,,,,,,,,,,,,,
1648680336,1648680336,86,0,4290.256348,4253.846191,4272.692383,4284.743652,4301.282227,4300.384766,4287.563965,4298.846191,4258.846191,4280.512695,4281.666504,4249.743652,4137.820313,4276.410156,3633,3,73,,,,0,4,4,4,4,4,4,4,4,4,4,4,4,4,4,100,,,,,,,,,,,,,,,,,,,,,,,,,,,,
1648680336,1648680336,87,0,4301.538574,4243.717773,4278.205078,4285,4296.794922,4293.717773,4273.589844,4292.820313,4253.077148,4284.615234,4287.563965,4253.717773,4150,4282.692383,3634,3,73,,,,0,4,4,4,4,4,4,4,4,4,4,4,4,4,4,100,,,,,,,,,,,,,,,,,,,,,,,,,,,,
1648680336,1648680336,88,0,4296.153809,4250.128418,4273.333496,4287.436035,4295.897461,4294.871582,4272.179688,4296.794922,4258.461426,4278.717773,4277.563965,4247.179688,4154.487305,4283.333496,3647,3,73,,,,0,4,4,4,4,4,4,4,4,4,4,4,4,4,4,100,,,,,,,,,,,,,,,,,22,0,0.603774,0.145569,-0.716614,0.317383,1.000015,-0.317876,-0.060548,-29.608606,-101.835663,-5.68246
1648680336,1648680336,89,0,4279.871582,4248.717773,4259.615234,4276.666504,4290,4285.256348,4269.102539,4284.487305,4250.512695,4273.333496,4267.307617,4233.974121,4134.871582,4270.384766,3649,3,73,,,,0,4,4,4,4,4,4,4,4,4,4,4,4,4,4,100,,,,,,,,,,,,,,,,,,,,,,,,,,,,
1648680336,1648680336,90,0,4287.692383,4251.410156,4266.410156,4279.358887,4289.358887,4281.922852,4273.461426,4286.538574,4249.743652,4286.282227,4281.794922,4242.692383,4136.922852,4277.436035,3633,3,73,,,,0,4,4,4,4,4,4,4,4,4,4,4,4,4,4,100,,,,,,,,,,,,,,,,,,,,,,,,,,,,
1648680336,1648680336,91,0,4291.410156,4247.563965,4271.282227,4284.871582,4290,4284.102539,4273.846191,4296.794922,4255,4287.563965,4288.077148,4251.282227,4142.307617,4286.025879,3634,3,73,,,,0,4,4,4,4,4,4,4,4,4,4,4,4,4,4,100,,,,,,,,,,,,,,,,,,,,,,,,,,,,
1648680336,1648680336,92,0,4275.641113,4232.820313,4258.589844,4273.589844,4284.102539,4280.641113,4265.897461,4283.333496,4242.05127,4267.94873,4270,4236.794922,4124.358887,4270.897461,3647,3,73,,,,0,4,4,4,4,4,4,4,4,4,4,4,4,4,4,100,,,,,,,,,,,,,,,,,23,0,0.604572,0.144348,-0.716431,0.316833,0.987808,-0.28809,-0.05127,-29.010452,-101.237503,-5.831998
1648680336,1648680336,93,0,4272.436035,4230.769043,4255.128418,4270,4284.230957,4284.358887,4274.102539,4289.230957,4237.692383,4265.512695,4265.897461,4229.615234,4117.94873,4260.384766,3649,3,73,,,,0,4,4,4,4,4,4,4,4,4,4,4,4,4,4,100,1,91.666664,4,4,4,4,4,3,4,4,4,4,4,4,4,4,,,,,,,,,,,,
1648680336,1648680336,94,0,4282.94873,4243.846191,4265.256348,4282.307617,4295.641113,4295.897461,4292.05127,4313.461426,4255.512695,4282.692383,4277.820313,4244.487305,4133.077148,4271.666504,3633,3,73,,,,0,4,4,4,4,4,4,4,4,4,4,4,4,4,4,100,,,,,,,,,,,,,,,,,,,,,,,,,,,,
1648680336,1648680336,95,0,4287.94873,4248.205078,4272.820313,4289.871582,4304.102539,4302.436035,4291.538574,4304.102539,4257.692383,4289.487305,4281.153809,4255.897461,4143.205078,4285.128418,3634,3,73,,,,0,4,4,4,4,4,4,4,4,4,4,4,4,4,4,100,,,,,,,,,,,,,,,,,,,,,,,,,,,,
1648680336,1648680336,96,0,4279.358887,4241.153809,4264.358887,4277.94873,4293.589844,4295.384766,4277.692383,4279.102539,4230.897461,4267.307617,4262.94873,4242.436035,4132.307617,4276.666504,3647,3,73,,,,0,4,4,4,4,4,4,4,4,4,4,4,4,4,4,100,,,,,,,,,,,,,,,,,24,0,0.605286,0.143555,-0.716553,0.315552,0.977554,-0.268559,-0.052247,-28.561836,-101.985199,-7.327382
1648680336,1648680336,97,0,4285.641113,4244.102539,4268.333496,4280.641113,4292.563965,4295.897461,4283.461426,4292.179688,4235.512695,4261.025879,4259.230957,4242.692383,4124.487305,4278.461426,3649,3,73,,,,0,4,4,4,4,4,4,4,4,4,4,4,4,4,4,100,,,,,,,,,,,,,,,,,,,,,,,,,,,,
1648680336,1648680336,98,0,4287.94873,4235.769043,4270.769043,4282.436035,4290.897461,4288.589844,4282.05127,4288.205078,4238.333496,4262.820313,4263.333496,4245.641113,4109.102539,4278.974121,3633,3,73,,,,0,4,4,4,4,4,4,4,4,4,4,4,4,4,4,100,,,,,,,,,,,,,,,,,,,,,,,,,,,,
1648680336,1648680336,99,0,4288.205078,4232.436035,4274.743652,4282.563965,4293.333496,4289.871582,4275.512695,4276.025879,4226.666504,4265,4272.563965,4250.128418,4111.922852,4280.512695,3634,3,73,,,,0,4,4,4,4,4,4,4,4,4,4,4,4,4,4,100,,,,,,,,,,,,,,,,,,,,,,,,,,,,
1648680336,1648680336,100,0,4276.666504,4229.487305,4264.487305,4269.743652,4283.077148,4281.538574,4265.256348,4272.179688,4212.307617,4251.666504,4254.871582,4239.743652,4117.692383,4268.461426,3647,3,73,,,,0,4,4,4,4,4,4,4,4,4,4,4,4,4,4,100,,,,,,,,,,,,,,,,,25,0,0.605529,0.143494,-0.716736,0.314697,0.976089,-0.251957,-0.081056,-28.412298,-100.340279,-7.775998
1648680336,1648680336,101,0,4288.205078,4241.922852,4273.717773,4280.256348,4289.102539,4287.563965,4277.307617,4284.102539,4226.922852,4259.871582,4248.974121,4244.871582,4123.333496,4274.871582,3649,3,73,,,,0,4,4,4,4,4,4,4,4,4,4,4,4,4,4,100,,,,,,,,,,,,,,,,,,,,,,,,,,,,
1648680336,1648680336,102,0,4301.922852,4255.769043,4287.05127,4294.230957,4303.846191,4302.94873,4290.384766,4292.436035,4240.641113,4274.487305,4262.820313,4254.230957,4113.205078,4287.820313,3633,3,73,,,,0,4,4,4,4,4,4,4,4,4,4,4,4,4,4,100,,,,,,,,,,,,,,,,,,,,,,,,,,,,
1648680336,1648680336,103,0,4306.282227,4258.333496,4291.666504,4299.230957,4316.282227,4314.102539,4299.871582,4311.025879,4253.846191,4285,4278.077148,4263.461426,4115.128418,4295.128418,3634,3,73,,,,0,4,4,4,4,4,4,4,4,4,4,4,4,4,4,100,,,,,,,,,,,,,,,,,,,,,,,,,,,,
1648680336,1648680336,104,0,4297.307617,4242.179688,4283.846191,4291.666504,4307.563965,4302.563965,4292.563965,4306.538574,4248.077148,4277.692383,4267.436035,4253.846191,4117.436035,4284.358887,3647,3,73,,,,0,4,4,4,4,4,4,4,4,4,4,4,4,4,4,100,,,,,,,,,,,,,,,,,26,0,0.605422,0.144043,-0.717224,0.313538,0.977554,-0.252445,-0.063966,-29.758144,-100.489815,-6.878767
1648680336,1648680336,105,0,4295,4245.128418,4285.128418,4292.563965,4304.358887,4301.153809,4290.128418,4288.589844,4234.102539,4271.153809,4257.179688,4247.820313,4114.358887,4280.512695,3649,3,73,,,,0,4,4,4,4,4,4,4,4,4,4,4,4,4,4,100,,,,,,,,,,,,,,,,,,,,,,,,,,,,
1648680336,1648680336,106,0,4284.871582,4245.512695,4275.128418,4283.333496,4297.94873,4295.384766,4279.487305,4276.153809,4219.358887,4255.384766,4242.179688,4241.410156,4098.205078,4273.846191,3633,3,73,,,,0,4,4,4,4,4,4,4,4,4,4,4,4,4,4,100,,,,,,,,,,,,,,,,,,,,,,,,,,,,
1648680336,1648680336,107,0,4277.05127,4233.974121,4264.358887,4271.666504,4288.333496,4286.025879,4268.333496,4273.461426,4213.205078,4242.820313,4232.820313,4235,4089.230713,4264.102539,3634,3,73,,,,0,4,4,4,4,4,4,4,4,4,4,4,4,4,4,100,,,,,,,,,,,,,,,,,,,,,,,,,,,,
1648680336,1648680336,108,0,4284.487305,4233.717773,4275.128418,4279.230957,4289.487305,4290.384766,4271.282227,4276.794922,4217.94873,4252.179688,4245.256348,4242.563965,4099.743652,4271.794922,3647,3,73,,,,0,4,4,4,4,4,4,4,4,4,4,4,4,4,4,100,,,,,,,,,,,,,,,,,27,0,0.604575,0.145386,-0.717773,0.313293,0.976089,-0.246586,-0.09131,-29.010452,-99.742119,-6.878767
1648680336,1648680336,109,0,4288.333496,4241.666504,4278.333496,4285,4291.922852,4289.743652,4271.282227,4271.922852,4211.282227,4251.025879,4250.384766,4241.794922,4094.487061,4276.794922,3649,3,73,,,,0,4,4,4,4,4,4,4,4,4,4,4,4,4,4,100,,,,,,,,,,,,,,,,,,,,,,,,,,,,
1648680336,1648680336,110,0,4287.563965,4243.717773,4270.512695,4282.820313,4294.615234,4286.922852,4270,4267.179688,4201.922852,4241.282227,4245.897461,4237.05127,4081.794922,4272.436035,3633,3,73,,,,0,4,4,4,4,4,4,4,4,4,4,4,4,4,4,100,,,,,,,,,,,,,,,,,,,,,,,,,,,,
1648680336,1648680336,111,0,4283.974121,4236.538574,4267.94873,4277.307617,4292.563965,4291.538574,4272.94873,4266.922852,4199.615234,4235.769043,4241.538574,4237.820313,4077.564209,4270.384766,3634,3,73,,,,0,4,4,4,4,4,4,4,4,4,4,4,4,4,4,100,,,,,,,,,,,,,,,,,,,,,,,,,,,,
1648680336,1648680336,112,0,4287.436035,4238.205078,4277.94873,4280,4294.615234,4298.974121,4278.205078,4275.256348,4210.384766,4245,4244.358887,4244.102539,4082.692383,4279.871582,3647,3,73,,,,0,4,4,4,4,4,4,4,4,4,4,4,4,4,4,100,,,,,,,,,,,,,,,,,28,0,0.603325,0.146545,-0.718323,0.313904,0.962417,-0.265629,-0.104005,-29.010452,-100.190735,-6.878767
1648680336,1648680336,113,0,4284.102539,4237.94873,4272.436035,4274.743652,4289.230957,4286.794922,4267.05127,4267.307617,4206.410156,4246.410156,4237.563965,4235.384766,4083.846191,4271.538574,3649,3,73,,,,0,4,4,4,4,4,4,4,4,4,4,4,4,4,4,100,,,,,,,,,,,,,,,,,,,,,,,,,,,,
1648680336,1648680336,114,0,4285.256348,4239.230957,4272.179688,4276.025879,4292.05127,4287.692383,4268.205078,4267.307617,4204.871582,4253.333496,4241.282227,4235.641113,4098.589844,4266.922852,3633,3,73,,,,0,4,4,4,4,4,4,4,4,4,4,4,4,4,4,100,,,,,,,,,,,,,,,,,,,,,,,,,,,,
1648680336,1648680336,115,0,4275.384766,4235.128418,4264.743652,4269.615234,4284.871582,4287.179688,4266.538574,4266.282227,4201.282227,4245.384766,4235.384766,4227.307617,4094.615479,4260.512695,3634,3,73,,,,0,4,4,4,4,4,4,4,4,4,4,4,4,4,4,100,,,,,,,,,,,,,,,,,,,,,,,,,,,,
1648680336,1648680336,116,0,4278.461426,4246.538574,4265.512695,4275.384766,4286.282227,4285.256348,4263.846191,4270.256348,4210.641113,4244.743652,4239.102539,4229.743652,4082.435791,4266.666504,3647,3,73,,,,0,4,4,4,4,4,4,4,4,4,4,4,4,4,4,100,,,,,,,,,,,,,,,,,29,0,0.602532,0.146179,-0.718689,0.314758,0.969253,-0.294926,-0.08838,-28.711376,-100.639351,-7.028306
1648680336,1648680336,117,0,4274.487305,4238.205078,4258.846191,4268.333496,4279.743652,4272.692383,4252.05127,4263.077148,4208.717773,4243.077148,4238.077148,4231.025879,4064.871826,4263.717773,3649,3,73,,,,0,4,4,4,4,4,4,4,4,4,4,4,4,4,4,100,,,,,,,,,,,,,,,,,,,,,,,,,,,,
1648680336,1648680336,118,0,4271.410156,4222.692383,4257.820313,4257.563965,4280.512695,4278.589844,4258.717773,4263.974121,4205.897461,4243.077148,4232.94873,4228.205078,4075.384521,4259.102539,3633,3,73,,,,0,4,4,4,4,4,4,4,4,4,4,4,4,4,4,100,,,,,,,,,,,,,,,,,,,,,,,,,,,,
1648680336,1648680336,119,0,4273.333496,4226.282227,4261.410156,4257.820313,4281.410156,4283.461426,4269.230957,4268.077148,4209.358887,4244.230957,4226.282227,4222.05127,4085.256348,4253.846191,3634,3,73,,,,0,4,4,4,4,4,4,4,4,4,4,4,4,4,4,100,,,,,,,,,,,,,,,,,,,,,,,,,,,,
1648680336,1648680336,120,0,4283.461426,4241.922852,4272.436035,4274.358887,4283.974121,4279.871582,4268.846191,4267.820313,4218.589844,4254.743652,4238.333496,4235.384766,4078.461426,4268.846191,3647,3,73,,,,0,4,4,4,4,4,4,4,4,4,4,4,4,4,4,100,,,,,,,,,,,,,,,,,30,0,0.602743,0.144226,-0.718933,0.314697,0.971206,-0.306157,-0.09131,-28.561836,-99.742119,-6.878767
1648680336,1648680336,121,0,4274.230957,4234.743652,4267.436035,4269.871582,4277.692383,4274.615234,4259.102539,4257.307617,4208.333496,4247.307617,4237.94873,4237.179688,4064.743652,4270.512695,3649,3,73,,,,0,4,4,4,4,4,4,4,4,4,4,4,4,4,4,100,,,,,,,,,,,,,,,,,,,,,,,,,,,,
1648680336,1648680336,122,0,4268.846191,4229.871582,4263.333496,4262.05127,4280.641113,4283.589844,4268.205078,4265.256348,4204.615234,4242.436035,4233.205078,4233.717773,4066.410156,4260.769043,3633,3,73,,,,0,4,4,4,4,4,4,4,4,4,4,4,4,4,4,100,,,,,,,,,,,,,,,,,,,,,,,,,,,,
1648680336,1648680336,123,0,4272.94873,4231.538574,4265.128418,4263.717773,4286.538574,4287.05127,4270.769043,4269.230957,4207.820313,4245.512695,4228.461426,4234.743652,4070.769287,4260.384766,3634,3,73,,,,0,4,4,4,4,4,4,4,4,4,4,4,4,4,4,100,,,,,,,,,,,,,,,,,,,,,,,,,,,,
1648680336,1648680336,124,0,4272.179688,4227.563965,4260.769043,4262.179688,4283.717773,4282.692383,4261.538574,4248.846191,4189.871582,4225,4212.563965,4226.666504,4060,4260.256348,3647,3,73,,,,0,4,4,4,4,4,4,4,4,4,4,4,4,4,4,100,,,,,,,,,,,,,,,,,31,0,0.602909,0.142456,-0.71936,0.314209,0.973648,-0.285649,-0.08838,-28.412298,-101.087967,-7.028306
1648680336,1648680336,125,0,4274.358887,4225.769043,4262.05127,4262.820313,4284.358887,4288.077148,4265.769043,4251.922852,4186.153809,4216.410156,4212.05127,4226.282227,4059.743652,4262.820313,3649,3,73,,,,0,4,4,4,4,4,4,4,4,4,4,4,4,4,4,100,,,,,,,,,,,,,,,,,,,,,,,,,,,,
1648680336,1648680336,126,0,4275.384766,4235.128418,4268.846191,4264.871582,4283.717773,4288.589844,4268.461426,4270,4206.282227,4239.230957,4229.230957,4232.820313,4068.076904,4265.769043,3633,3,73,,,,0,4,4,4,4,4,4,4,4,4,4,4,4,4,4,100,,,,,,,,,,,,,,,,,,,,,,,,,,,,
1648680336,1648680336,127,0,4274.743652,4242.94873,4272.436035,4267.307617,4279.615234,4280.512695,4257.563965,4266.025879,4214.358887,4254.487305,4235.897461,4236.666504,4078.718018,4268.717773,55,3,73,,,,0,4,4,4,4,4,4,4,4,4,4,4,4,4,4,100,,,,,,,,,,,,,,,,,,,,,,,,,,,,
1648680336,1648680336,0,0,4271.666504,4234.615234,4263.589844,4262.179688,4276.025879,4270.512695,4246.922852,4251.153809,4201.282227,4237.563965,4221.410156,4229.871582,4078.974365,4263.205078,3601,3,73,,,,0,4,4,4,4,4,4,4,4,4,4,4,4,4,4,100,,,,,,,,,,,,,,,,,0,0,0.603094,0.142212,-0.71936,0.313965,0.973648,-0.262699,-0.07422,-29.15999,-101.087967,-6.729228
1648680336,1648680336,1,0,4281.538574,4232.05127,4267.307617,4265.769043,4286.410156,4271.666504,4247.05127,4258.205078,4201.282227,4234.487305,4233.461426,4237.563965,4066.153809,4267.563965,3593,3,73,,,,0,4,4,4,4,4,4,4,4,4,4,4,4,4,4,100,,,,,,,,,,,,,,,,,,,,,,,,,,,,
1648680336,1648680336,2,0,4277.563965,4228.589844,4266.666504,4258.589844,4275.256348,4260,4234.230957,4247.692383,4188.461426,4230.897461,4236.922852,4236.794922,4040.897461,4266.153809,3595,3,73,,,,0,4,4,4,4,4,4,4,4,4,4,4,4,4,4,100,,,,,,,,,,,,,,,,,,,,,,,,,,,,
1648680336,1648680336,3,0,4268.846191,4230.384766,4263.333496,4257.05127,4265,4254.743652,4233.461426,4236.025879,4182.307617,4228.974121,4212.563965,4229.871582,4050.384521,4266.025879,3080,3,73,,,,0,4,4,4,4,4,4,4,4,4,4,4,4,4,4,100,,,,,,,,,,,,,,,,,,,,,,,,,,,,
1648680336,1648680336,4,0,4254.230957,4218.077148,4246.282227,4247.436035,4257.436035,4248.077148,4226.025879,4222.307617,4171.153809,4210.512695,4179.615234,4209.615234,4047.05127,4246.922852,3631,3,73,,,,0,4,4,4,4,4,4,4,4,4,4,4,4,4,4,100,,,,,,,,,,,,,,,,,1,0,0.602909,0.143188,-0.719055,0.314575,0.979995,-0.261723,-0.087404,-28.561836,-100.489815,-7.626459
1648680336,1648680336,5,0,4253.589844,4210.256348,4241.538574,4240.641113,4256.282227,4248.333496,4222.179688,4218.333496,4161.666504,4192.563965,4180.769043,4203.205078,4023.974365,4231.282227,3593,3,73,,,,0,4,4,4,4,4,4,4,4,4,4,4,4,4,4,100,,,,,,,,,,,,,,,,,,,,,,,,,,,,
1648680336,1648680336,6,0,4237.179688,4204.102539,4230.128418,4224.615234,4244.358887,4240.384766,4217.436035,4208.846191,4148.717773,4182.307617,4175.384766,4193.589844,4022.435791,4221.025879,3383,3,73,,,,0,4,4,4,4,4,4,4,4,4,4,4,4,4,4,100,,,,,,,,,,,,,,,,,,,,,,,,,,,,
1648680336,1648680336,7,0,4223.333496,4205.512695,4223.846191,4218.846191,4244.487305,4241.153809,4219.871582,4206.538574,4146.666504,4187.94873,4166.666504,4185.769043,4039.615479,4220.256348,3588,3,73,,,,0,4,4,4,4,4,4,4,4,4,4,4,4,4,4,100,,,,,,,,,,,,,,,,,,,,,,,,,,,,
1648680336,1648680336,8,0,4221.410156,4199.743652,4221.282227,4216.153809,4239.871582,4238.846191,4216.794922,4205.769043,4141.922852,4180.769043,4166.153809,4180.128418,4008.589844,4214.358887,3593,3,73,,,,0,4,4,4,4,4,4,4,4,4,4,4,4,4,4,100,,,,,,,,,,,,,,,,,2,0,0.602573,0.144043,-0.718872,0.315247,0.960464,-0.271977,-0.106447,-29.15999,-100.340279,-6.729228
1648680336,1648680336,9,0,4225.512695,4202.307617,4221.282227,4215.256348,4231.922852,4236.666504,4216.410156,4207.94873,4143.589844,4177.820313,4168.205078,4181.153809,3997.94873,4214.487305,3623,3,73,,,,0,4,4,4,4,4,4,4,4,4,4,4,4,4,4,100,,,,,,,,,,,,,,,,,,,,,,,,,,,,
1648680336,1648680336,10,0,4216.025879,4198.461426,4208.333496,4204.230957,4221.410156,4226.538574,4204.615234,4196.538574,4135.897461,4175.641113,4154.102539,4170.128418,4019.230713,4203.461426,3633,3,73,,,,0,4,4,4,4,4,4,4,4,4,4,4,4,4,4,100,,,,,,,,,,,,,,,,,,,,,,,,,,,,
1648680336,1648680336,11,0,4210.384766,4191.153809,4201.666504,4198.974121,4221.282227,4223.077148,4198.205078,4187.820313,4129.615234,4173.077148,4153.974121,4164.487305,4005.128174,4195.128418,3624,3,73,,,,0,4,4,4,4,4,4,4,4,4,4,4,4,4,4,100,,,,,,,,,,,,,,,,,,,,,,,,,,,,
1648680336,1648680336,12,0,4209.871582,4191.153809,4203.205078,4203.717773,4224.230957,4223.846191,4203.333496,4194.487305,4139.871582,4177.94873,4162.436035,4169.358887,3976.794922,4197.94873,3636,3,73,,,,0,4,4,4,4,4,4,4,4,4,4,4,4,4,4,100,,,,,,,,,,,,,,,,,3,0,0.60205,0.14624,-0.718384,0.316345,0.982925,-0.299321,-0.103029,-29.608606,-98.545815,-7.028306
1648680336,1648680336,13,0,4206.153809,4196.025879,4195.384766,4199.871582,4214.487305,4209.487305,4195.897461,4186.794922,4134.615234,4171.794922,4149.487305,4163.589844,3982.307617,4192.563965,3631,3,73,,,,0,4,4,4,4,4,4,4,4,4,4,4,4,4,4,100,,,,,,,,,,,,,,,,,,,,,,,,,,,,
1648680336,1648680336,14,0,4216.410156,4195.897461,4199.358887,4196.025879,4213.974121,4206.025879,4194.615234,4182.179688,4125.897461,4165.384766,4146.538574,4165.897461,4009.871826,4198.589844,3633,3,73,,,,0,4,4,4,4,4,4,4,4,4,4,4,4,4,4,100,,,,,,,,,,,,,,,,,,,,,,,,,,,,
1648680336,1648680336,15,0,4218.974121,4192.563965,4207.179688,4198.077148,4224.615234,4218.077148,4212.05127,4195.512695,4132.692383,4170.384766,4161.282227,4176.025879,4012.307617,4209.102539,3624,3,73,,,,0,4,4,4,4,4,4,4,4,4,4,4,4,4,4,100,,,,,,,,,,,,,,,,,,,,,,,,,,,,
1648680336,1648680336,16,0,4221.410156,4206.666504,4213.333496,4210.641113,4232.436035,4230.256348,4228.333496,4209.871582,4147.307617,4184.487305,4171.410156,4186.538574,4005.897461,4213.333496,0,3,73,,,,0,4,4,4,4,4,4,4,4,4,4,4,4,4,4,100,,,,,,,,,,,,,,,,,4,0,0.60201,0.146423,-0.717896,0.317444,0.96144,-0.321294,-0.070314,-29.309528,-98.396278,-5.383383
1648680336,1648680336,17,0,4217.436035,4209.102539,4205.256348,4206.282227,4219.871582,4220.769043,4214.487305,4193.846191,4137.94873,4171.282227,4150.384766,4174.871582,4005.384521,4201.538574,0,3,73,,,,0,4,4,4,4,4,4,4,4,4,4,4,4,4,4,100,,,,,,,,,,,,,,,,,,,,,,,,,,,,
1648680336,1648680336,18,0,4217.436035,4198.205078,4209.102539,4205.128418,4219.102539,4217.307617,4210.128418,4191.153809,4136.282227,4169.615234,4149.743652,4171.922852,4024.358887,4209.743652,0,3,73,,,,0,4,4,4,4,4,4,4,4,4,4,4,4,4,4,100,,,,,,,,,,,,,,,,,,,,,,,,,,,,
1648680336,1648680336,19,0,4214.871582,4191.538574,4208.974121,4205.128418,4220.128418,4214.230957,4214.358887,4191.025879,4133.205078,4178.333496,4162.05127,4175.641113,4025,4216.538574,0,3,73,,,,0,4,4,4,4,4,4,4,4,4,4,4,4,4,4,100,,,,,,,,,,,,,,,,,,,,,,,,,,,,
1648680336,1648680336,20,0,4228.205078,4215.384766,4219.230957,4221.538574,4233.333496,4232.05127,4225,4204.102539,4146.666504,4191.025879,4175.641113,4189.230957,4020.512939,4222.436035,0,3,73,,,,0,4,4,4,4,4,4,4,4,4,4,4,4,4,4,100,,,,,,,,,,,,,,,,,5,0,0.602841,0.144958,-0.717468,0.317505,0.950698,-0.312016,-0.063966,-29.309528,-98.396278,-5.084306
1648680336,1648680336,21,0,4227.820313,4216.153809,4223.077148,4223.589844,4235.384766,4236.282227,4217.307617,4208.974121,4157.179688,4183.461426,4170.512695,4185.769043,4016.923096,4216.794922,0,3,73,,,,0,4,4,4,4,4,4,4,4,4,4,4,4,4,4,100,,,,,,,,,,,,,,,,,,,,,,,,,,,,
1648680336,1648680336,22,0,4228.205078,4205.384766,4227.692383,4224.487305,4243.846191,4237.692383,4216.794922,4200.128418,4157.820313,4183.974121,4173.974121,4189.615234,4026.923096,4222.05127,0,3,73,,,,0,4,4,4,4,4,4,4,4,4,4,4,4,4,4,100,,,,,,,,,,,,,,,,,,,,,,,,,,,,
1648680336,1648680336,23,0,4236.282227,4213.333496,4232.307617,4234.102539,4256.025879,4248.589844,4224.487305,4197.436035,4154.871582,4198.333496,4183.205078,4202.307617,4043.205078,4231.666504,0,3,73,,,,0,4,4,4,4,4,4,4,4,4,4,4,4,4,4,100,,,,,,,,,,,,,,,,,,,,,,,,,,,,
1648680336,1648680337,24,0,4248.333496,4228.461426,4241.922852,4244.871582,4264.615234,4262.179688,4236.153809,4221.794922,4165.512695,4208.461426,4194.615234,4212.563965,4047.05127,4241.282227,0,3,73,,,,0,4,4,4,4,4,4,4,4,4,4,4,4,4,4,100,,,,,,,,,,,,,,,,,6,0,0.604006,0.143372,-0.717346,0.316284,0.958511,-0.279789,-0.052247,-27.664606,-99.29351,-5.68246
1648680336,1648680337,25,0,4241.538574,4216.538574,4235.384766,4231.538574,4254.358887,4251.666504,4234.102539,4226.025879,4167.05127,4197.179688,4191.922852,4203.077148,4013.461426,4235.769043,0,3,73,,,,0,4,4,4,4,4,4,4,4,4,4,4,4,4,4,100,,,,,,,,,,,,,,,,,,,,,,,,,,,,
1648680336,1648680337,26,0,4237.692383,4214.230957,4231.922852,4231.538574,4257.307617,4253.846191,4240,4221.025879,4172.436035,4201.666504,4189.615234,4204.230957,4018.718018,4233.333496,0,3,73,,,,0,4,4,4,4,4,4,4,4,4,4,4,4,4,4,100,,,,,,,,,,,,,,,,,,,,,,,,,,,,
1648680337,1648680337,27,0,4246.794922,4222.05127,4245.769043,4253.589844,4274.102539,4272.436035,4251.666504,4238.974121,4188.077148,4220.384766,4193.846191,4218.589844,4069.102539,4242.94873,0,3,73,,,,0,4,4,4,4,4,4,4,4,4,4,4,4,4,4,100,,,,,,,,,,,,,,,,,,,,,,,,,,,,
1648680337,1648680337,28,0,4253.974121,4220.256348,4254.102539,4256.282227,4275,4274.871582,4255.512695,4249.743652,4188.974121,4220.384766,4197.05127,4220.128418,4071.794922,4251.538574,0,3,73,,,,0,4,4,4,4,4,4,4,4,4,4,4,4,4,4,100,,,,,,,,,,,,,,,,,7,0,0.604878,0.142456,-0.717224,0.315308,0.966323,-0.259281,-0.056641,-28.26276,-100.489815,-6.131075
1648680337,1648680337,29,0,4259.230957,4225.512695,4254.102539,4249.871582,4274.102539,4274.358887,4261.025879,4252.94873,4192.05127,4224.743652,4211.922852,4224.230957,4045,4257.179688,0,3,73,,,,0,4,4,4,4,4,4,4,4,4,4,4,4,4,4,100,1,83.333336,4,4,4,4,4,3,4,4,4,4,4,4,3,4,,,,,,,,,,,,
1648680337,1648680337,30,0,4260.384766,4234.358887,4252.563965,4251.922852,4275.512695,4274.358887,4259.743652,4257.05127,4200.384766,4230.256348,4216.282227,4228.077148,4052.820557,4255.641113,0,3,73,,,,0,4,4,4,4,4,4,4,4,4,4,4,4,4,4,100,,,,,,,,,,,,,,,,,,,,,,,,,,,,
1648680337,1648680337,31,0,4262.179688,4230.512695,4257.820313,4258.333496,4276.025879,4271.025879,4250.256348,4254.102539,4203.461426,4228.717773,4205.897461,4228.461426,4076.025635,4257.436035,0,3,73,,,,0,4,4,4,4,4,4,4,4,4,4,4,4,4,4,100,,,,,,,,,,,,,,,,,,,,,,,,,,,,
1648680337,1648680337,32,0,4256.794922,4216.922852,4252.179688,4250.128418,4267.179688,4259.487305,4239.615234,4242.179688,4193.333496,4221.666504,4192.05127,4221.153809,4071.794922,4249.871582,0,3,73,,,,0,4,4,4,4,4,4,4,4,4,4,4,4,4,4,100,,,,,,,,,,,,,,,,,8,0,0.605097,0.142334,-0.717224,0.314941,0.997574,-0.275395,-0.066896,-29.15999,-100.639351,-5.68246
1648680337,1648680337,33,0,4257.05127,4217.94873,4251.410156,4245.897461,4264.871582,4258.717773,4242.692383,4249.358887,4195.128418,4225.384766,4200.641113,4225.897461,4066.410156,4250.384766,0,3,73,,,,0,4,4,4,4,4,4,4,4,4,4,4,4,4,4,100,,,,,,,,,,,,,,,,,,,,,,,,,,,,
1648680337,1648680337,34,0,4250,4215.128418,4245.512695,4240.128418,4254.230957,4255.512695,4236.025879,4235.769043,4184.230957,4212.94873,4202.307617,4220.641113,4044.102539,4248.974121,0,3,73,,,,0,4,4,4,4,4,4,4,4,4,4,4,4,4,4,100,,,,,,,,,,,,,,,,,,,,,,,,,,,,
1648680337,1648680337,35,0,4258.461426,4221.025879,4252.94873,4251.025879,4258.589844,4259.230957,4235.256348,4223.333496,4174.743652,4210.384766,4205.384766,4225,4045.512939,4254.358887,0,3,73,,,,0,4,4,4,4,4,4,4,4,4,4,4,4,4,4,100,,,,,,,,,,,,,,,,,,,,,,,,,,,,
1648680337,1648680337,36,0,4259.871582,4215.641113,4254.358887,4247.94873,4263.589844,4254.743652,4231.538574,4226.794922,4169.230957,4210.512695,4196.282227,4221.282227,4061.025635,4246.922852,0,3,73,,,,0,4,4,4,4,4,4,4,4,4,4,4,4,4,4,100,,,,,,,,,,,,,,,,,9,0,0.604595,0.143616,-0.717285,0.315186,0.974624,-0.243656,-0.079103,-29.010452,-99.143967,-7.327382
1648680337,1648680337,37,0,4261.538574,4212.820313,4258.205078,4245,4269.358887,4261.666504,4242.179688,4245.897461,4187.692383,4221.410156,4195.256348,4223.077148,4077.820557,4250.384766,0,3,73,,,,0,4,4,4,4,4,4,4,4,4,4,4,4,4,4,100,,,,,,,,,,,,,,,,,,,,,,,,,,,,
1648680337,1648680337,38,0,4258.589844,4216.410156,4254.615234,4245.384766,4262.05127,4262.692383,4247.05127,4245.769043,4194.743652,4224.102539,4199.358887,4227.436035,4074.102539,4253.333496,0,3,73,,,,0,4,4,4,4,4,4,4,4,4,4,4,4,4,4,100,,,,,,,,,,,,,,,,,,,,,,,,,,,,
1648680337,1648680337,39,0,4261.666504,4225,4256.282227,4252.307617,4265.256348,4262.05127,4249.102539,4245,4192.436035,4222.05127,4205.897461,4231.538574,4058.461426,4252.05127,0,3,73,,,,0,4,4,4,4,4,4,4,4,4,4,4,4,4,4,100,,,,,,,,,,,,,,,,,,,,,,,,,,,,
1648680337,1648680337,40,0,4258.974121,4220.769043,4255.256348,4248.077148,4269.487305,4259.358887,4250.128418,4243.974121,4194.871582,4217.307617,4201.922852,4223.717773,4051.153809,4246.282227,0,3,73,,,,0,4,4,4,4,4,4,4,4,4,4,4,4,4,4,100,,,,,,,,,,,,,,,,,10,0,0.604275,0.144592,-0.717224,0.315491,0.974136,-0.27393,-0.089845,-29.15999,-99.592583,-6.729228
1648680337,1648680337,41,0,4262.307617,4217.563965,4256.922852,4244.487305,4271.666504,4266.025879,4258.333496,4246.666504,4203.333496,4224.230957,4208.205078,4227.563965,4068.974365,4256.794922,0,3,73,,,,0,4,4,4,4,4,4,4,4,4,4,4,4,4,4,100,,,,,,,,,,,,,,,,,,,,,,,,,,,,
1648680337,1648680337,42,0,4253.589844,4207.05127,4250.128418,4232.94873,4260.512695,4261.410156,4250.256348,4248.333496,4197.563965,4229.230957,4212.820313,4230.769043,4074.615479,4260.256348,0,3,73,,,,0,4,4,4,4,4,4,4,4,4,4,4,4,4,4,100,,,,,,,,,,,,,,,,,,,,,,,,,,,,
1648680337,1648680337,43,0,4242.820313,4202.307617,4244.871582,4226.153809,4251.025879,4250.128418,4233.077148,4244.230957,4196.410156,4224.230957,4202.307617,4221.410156,4064.487061,4249.102539,0,3,73,,,,0,4,4,4,4,4,4,4,4,4,4,4,4,4,4,100,,,,,,,,,,,,,,,,,,,,,,,,,,,,
1648680337,1648680337,44,0,4248.974121,4210.512695,4248.717773,4234.743652,4253.846191,4251.153809,4227.820313,4238.077148,4202.692383,4219.871582,4192.307617,4215.641113,4067.564209,4241.410156,0,3,73,,,,0,4,4,4,4,4,4,4,4,4,4,4,4,4,4,100,,,,,,,,,,,,,,,,,11,0,0.603491,0.145691,-0.717285,0.316345,0.939956,-0.305669,-0.069337,-30.20676,-100.190735,-7.327382
1648680337,1648680337,45,0,4241.538574,4212.436035,4239.102539,4225.256348,4246.666504,4246.794922,4224.871582,4228.974121,4184.615234,4210,4187.436035,4207.692383,4057.820557,4231.153809,0,3,73,,,,0,4,4,4,4,4,4,4,4,4,4,4,4,4,4,100,,,,,,,,,,,,,,,,,,,,,,,,,,,,
1648680337,1648680337,46,0,4234.230957,4211.025879,4232.94873,4214.358887,4236.922852,4239.102539,4216.538574,4228.077148,4173.717773,4207.94873,4196.794922,4209.871582,4043.718018,4236.153809,0,3,73,,,,0,4,4,4,4,4,4,4,4,4,4,4,4,4,4,100,,,,,,,,,,,,,,,,,,,,,,,,,,,,
1648680337,1648680337,47,0,4238.589844,4209.743652,4235.897461,4218.846191,4234.615234,4235.897461,4206.153809,4224.102539,4178.974121,4207.307617,4197.94873,4213.205078,4049.871826,4242.563965,0,3,73,,,,0,4,4,4,4,4,4,4,4,4,4,4,4,4,4,100,,,,,,,,,,,,,,,,,,,,,,,,,,,,
1648680337,1648680337,48,0,4243.974121,4212.94873,4240.128418,4228.205078,4245.769043,4245.512695,4216.153809,4220.512695,4186.025879,4211.153809,4192.05127,4210.256348,4066.153809,4238.589844,0,3,73,,,,0,4,4,4,4,4,4,4,4,4,4,4,4,4,4,100,,,,,,,,,,,,,,,,,12,0,0.603312,0.145203,-0.717346,0.316772,0.975601,-0.281254,-0.061036,-27.963684,-100.340279,-5.68246
1648680337,1648680337,49,0,4228.589844,4202.820313,4226.922852,4215.256348,4242.179688,4238.589844,4217.820313,4203.717773,4168.846191,4193.589844,4177.563965,4195.512695,4052.94873,4224.615234,0,3,73,,,,0,4,4,4,4,4,4,4,4,4,4,4,4,4,4,100,,,,,,,,,,,,,,,,,,,,,,,,,,,,
1648680337,1648680337,50,0,4231.794922,4197.692383,4228.974121,4214.871582,4240.641113,4236.025879,4214.743652,4205.641113,4167.179688,4188.461426,4183.589844,4202.563965,4040,4232.94873,0,3,73,,,,0,4,4,4,4,4,4,4,4,4,4,4,4,4,4,100,,,,,,,,,,,,,,,,,,,,,,,,,,,,
1648680337,1648680337,51,0,4228.846191,4192.820313,4226.922852,4212.563965,4235.641113,4236.025879,4210.897461,4213.974121,4176.538574,4199.230957,4180.769043,4200.128418,4037.94873,4226.794922,0,3,73,,,,0,4,4,4,4,4,4,4,4,4,4,4,4,4,4,100,,,,,,,,,,,,,,,,,,,,,,,,,,,,
1648680337,1648680337,52,0,4222.307617,4198.717773,4225.256348,4212.692383,4243.717773,4244.102539,4221.410156,4225.897461,4189.615234,4215.256348,4174.615234,4193.589844,4060.384521,4218.461426,0,3,73,,,,0,4,4,4,4,4,4,4,4,4,4,4,4,4,4,100,,,,,,,,,,,,,,,,,13,0,0.603539,0.143982,-0.71759,0.316345,0.948257,-0.261234,-0.059083,-28.711376,-99.592583,-7.775998
1648680337,1648680337,53,0,4218.974121,4196.538574,4219.615234,4208.589844,4240.769043,4236.538574,4216.410156,4219.487305,4180.641113,4204.871582,4170.384766,4189.230957,4063.974365,4218.333496,0,3,73,,,,0,4,4,4,4,4,4,4,4,4,4,4,4,4,4,100,,,,,,,,,,,,,,,,,,,,,,,,,,,,
1648680337,1648680337,54,0,4228.333496,4206.666504,4227.820313,4215.256348,4241.025879,4240.384766,4216.153809,4224.358887,4185.769043,4206.282227,4180,4200.256348,4065.128174,4229.487305,0,3,73,,,,0,4,4,4,4,4,4,4,4,4,4,4,4,4,4,100,,,,,,,,,,,,,,,,,,,,,,,,,,,,
1648680337,1648680337,55,0,4232.05127,4215.384766,4235.512695,4219.102539,4242.94873,4247.179688,4218.717773,4235.256348,4200.641113,4217.563965,4184.871582,4205.256348,4067.435791,4230.128418,0,3,73,,,,0,4,4,4,4,4,4,4,4,4,4,4,4,4,4,100,,,,,,,,,,,,,,,,,,,,,,,,,,,,
1648680337,1648680337,56,0,4240.128418,4212.05127,4242.05127,4225,4245.384766,4249.871582,4222.436035,4240.128418,4200.256348,4222.307617,4195.256348,4213.205078,4070.897461,4233.846191,0,3,73,,,,0,4,4,4,4,4,4,4,4,4,4,4,4,4,4,100,,,,,,,,,,,,,,,,,14,0,0.603541,0.142883,-0.717834,0.316284,0.968765,-0.277836,-0.086915,-29.010452,-101.237503,-6.878767
1648680337,1648680337,57,0,4238.077148,4200.128418,4239.487305,4220.256348,4236.282227,4238.846191,4220.384766,4233.589844,4188.589844,4210.769043,4198.974121,4215.128418,4064.615479,4234.230957,0,3,73,,,,0,4,4,4,4,4,4,4,4,4,4,4,4,4,4,100,,,,,,,,,,,,,,,,,,,,,,,,,,,,
1648680337,1648680337,58,0,4234.743652,4203.974121,4238.333496,4217.692383,4235.256348,4236.794922,4224.358887,4228.333496,4189.743652,4200.384766,4195.512695,4212.94873,4055.641113,4235.769043,0,3,73,,,,0,4,4,4,4,4,4,4,4,4,4,4,4,4,4,100,,,,,,,,,,,,,,,,,,,,,,,,,,,,
1648680337,1648680337,59,0,4236.794922,4206.410156,4236.538574,4221.153809,4239.743652,4243.461426,4227.820313,4221.794922,4186.025879,4196.922852,4191.025879,4212.179688,4053.205078,4235.769043,0,3,73,,,,0,4,4,4,4,4,4,4,4,4,4,4,4,4,4,100,,,,,,,,,,,,,,,,,,,,,,,,,,,,
1648680337,1648680337,60,0,4232.179688,4198.717773,4230.128418,4216.025879,4233.461426,4236.666504,4223.974121,4211.025879,4171.410156,4193.461426,4181.025879,4205.641113,4065.641113,4226.794922,0,3,73,,,,0,4,4,4,4,4,4,4,4,4,4,4,4,4,4,100,,,,,,,,,,,,,,,,,15,0,0.603477,0.142517,-0.717773,0.316711,0.979507,-0.284184,-0.08838,-28.711376,-99.29351,-7.028306
1648680337,1648680337,61,0,4232.179688,4204.743652,4236.538574,4218.205078,4236.666504,4235.256348,4231.025879,4213.717773,4173.333496,4199.743652,4184.230957,4204.743652,4076.794922,4226.794922,0,3,73,,,,0,4,4,4,4,4,4,4,4,4,4,4,4,4,4,100,,,,,,,,,,,,,,,,,,,,,,,,,,,,
1648680337,1648680337,62,0,4239.102539,4215,4240.128418,4224.615234,4242.179688,4245.897461,4243.077148,4221.153809,4181.025879,4207.05127,4196.922852,4209.615234,4064.615479,4234.487305,0,3,73,,,,0,4,4,4,4,4,4,4,4,4,4,4,4,4,4,100,,,,,,,,,,,,,,,,,,,,,,,,,,,,
1648680337,1648680337,63,0,4242.05127,4206.794922,4238.205078,4225.641113,4240.512695,4250.128418,4242.94873,4232.820313,4192.563965,4218.717773,4201.282227,4216.666504,4077.179443,4242.692383,0,3,73,,,,0,4,4,4,4,4,4,4,4,4,4,4,4,4,4,100,,,,,,,,,,,,,,,,,,,,,,,,,,,,
1648680337,1648680337,64,0,4231.282227,4192.436035,4229.487305,4211.922852,4232.179688,4234.230957,4229.743652,4229.743652,4192.436035,4218.589844,4186.666504,4208.717773,4092.820557,4235.769043,3589,3,73,,,,0,4,4,4,4,4,4,4,4,4,4,4,4,4,4,100,,,,,,,,,,,,,,,,,16,0,0.603224,0.14325,-0.717651,0.317139,0.979507,-0.29395,-0.079591,-29.15999,-100.340279,-6.729228
1648680337,1648680337,65,0,4235.769043,4211.153809,4234.615234,4215.769043,4243.077148,4238.846191,4232.94873,4231.538574,4197.820313,4222.05127,4191.025879,4209.102539,4092.820557,4236.025879,3579,3,73,,,,0,4,4,4,4,4,4,4,4,4,4,4,4,4,4,100,,,,,,,,,,,,,,,,,,,,,,,,,,,,
1648680337,1648680337,66,0,4234.615234,4217.307617,4230.512695,4218.461426,4242.307617,4239.615234,4229.615234,4228.589844,4191.538574,4213.717773,4190.128418,4206.153809,4082.692383,4232.436035,3588,3,73,,,,0,4,4,4,4,4,4,4,4,4,4,4,4,4,4,100,,,,,,,,,,,,,,,,,,,,,,,,,,,,
1648680337,1648680337,67,0,4234.743652,4210.897461,4232.307617,4223.589844,4241.153809,4239.743652,4231.410156,4228.974121,4189.743652,4208.846191,4197.436035,4211.794922,4072.179443,4237.179688,3072,3,73,,,,0,4,4,4,4,4,4,4,4,4,4,4,4,4,4,100,,,,,,,,,,,,,,,,,,,,,,,,,,,,
1648680337,1648680337,68,0,4226.410156,4206.794922,4224.871582,4218.077148,4233.333496,4232.820313,4223.333496,4216.153809,4180,4200.128418,4195.641113,4202.05127,4052.05127,4225.641113,3615,3,73,,,,0,4,4,4,4,4,4,4,4,4,4,4,4,4,4,100,,,,,,,,,,,,,,,,,17,0,0.603077,0.143738,-0.717407,0.317749,0.979995,-0.296391,-0.069825,-29.907682,-100.639351,-8.224613
1648680337,1648680337,69,0,4229.871582,4205.897461,4223.846191,4217.563965,4236.410156,4236.666504,4224.487305,4221.410156,4182.692383,4205.897461,4187.820313,4196.794922,4075.256348,4221.282227,3582,3,73,,,,0,4,4,4,4,4,4,4,4,4,4,4,4,4,4,100,,,,,,,,,,,,,,,,,,,,,,,,,,,,
1648680337,1648680337,70,0,4225.897461,4193.077148,4220.641113,4211.410156,4238.846191,4243.205078,4233.846191,4232.692383,4187.820313,4205.897461,4173.717773,4193.461426,4088.076904,4222.563965,3361,3,73,,,,0,4,4,4,4,4,4,4,4,4,4,4,4,4,4,100,,,,,,,,,,,,,,,,,,,,,,,,,,,,
1648680337,1648680337,71,0,4228.589844,4201.025879,4227.692383,4218.589844,4247.179688,4256.153809,4247.436035,4239.615234,4196.666504,4204.358887,4181.794922,4202.436035,4072.307617,4231.922852,3597,3,73,,,,0,4,4,4,4,4,4,4,4,4,4,4,4,4,4,100,,,,,,,,,,,,,,,,,,,,,,,,,,,,
1648680337,1648680337,72,0,4238.205078,4205.641113,4235.384766,4222.436035,4241.153809,4252.05127,4238.333496,4240.769043,4203.077148,4208.846191,4192.179688,4211.538574,4082.94873,4240.641113,3583,3,73,,,,0,4,4,4,4,4,4,4,4,4,4,4,4,4,4,100,,,,,,,,,,,,,,,,,18,0,0.603069,0.142517,-0.717468,0.318176,0.961929,-0.302251,-0.0542,-29.15999,-100.639351,-5.981536
1648680337,1648680337,73,0,4250.384766,4208.974121,4244.743652,4224.358887,4238.717773,4250.128418,4236.153809,4252.307617,4215.128418,4226.282227,4205,4223.717773,4114.230957,4256.025879,3608,3,73,,,,0,4,4,4,4,4,4,4,4,4,4,4,4,4,4,100,,,,,,,,,,,,,,,,,,,,,,,,,,,,
1648680337,1648680337,74,0,4255.897461,4219.743652,4249.743652,4232.05127,4247.94873,4254.871582,4242.05127,4261.153809,4225.897461,4236.666504,4223.461426,4232.307617,4106.922852,4265.641113,3610,3,73,,,,0,4,4,4,4,4,4,4,4,4,4,4,4,4,4,100,,,,,,,,,,,,,,,,,,,,,,,,,,,,
1648680337,1648680337,75,0,4261.410156,4224.743652,4251.025879,4242.307617,4253.333496,4255.512695,4237.436035,4253.846191,4225.897461,4236.025879,4224.487305,4231.025879,4110.897461,4261.153809,3603,3,73,,,,0,4,4,4,4,4,4,4,4,4,4,4,4,4,4,100,,,,,,,,,,,,,,,,,,,,,,,,,,,,
1648680337,1648680337,76,0,4268.461426,4219.871582,4257.563965,4247.307617,4253.717773,4258.717773,4240.769043,4256.153809,4232.820313,4246.538574,4218.205078,4235.256348,4141.410156,4263.333496,3625,3,73,,,,0,4,4,4,4,4,4,4,4,4,4,4,4,4,4,100,,,,,,,,,,,,,,,,,19,0,0.603076,0.141663,-0.717712,0.317993,0.96437,-0.278813,-0.064454,-29.907682,-99.592583,-6.729228
1648680337,1648680337,77,0,4265,4222.05127,4257.307617,4242.307617,4252.436035,4262.05127,4246.153809,4259.358887,4238.205078,4248.077148,4220.769043,4235.512695,4120,4266.153809,3627,3,73,,,,0,4,4,4,4,4,4,4,4,4,4,4,4,4,4,100,,,,,,,,,,,,,,,,,,,,,,,,,,,,
1648680337,1648680337,78,0,4270.256348,4234.487305,4261.794922,4248.846191,4263.077148,4275.641113,4246.922852,4258.589844,4240.897461,4246.922852,4232.692383,4240.897461,4110.512695,4274.871582,3610,3,73,,,,0,4,4,4,4,4,4,4,4,4,4,4,4,4,4,100,,,,,,,,,,,,,,,,,,,,,,,,,,,,
1648680337,1648680337,79,0,4276.025879,4232.307617,4267.05127,4251.922852,4269.615234,4282.563965,4250,4253.205078,4234.358887,4248.077148,4238.461426,4248.589844,4139.230957,4278.589844,3603,3,73,,,,0,4,4,4,4,4,4,4,4,4,4,4,4,4,4,100,,,,,,,,,,,,,,,,,,,,,,,,,,,,
1648680337,1648680337,80,0,4282.05127,4227.692383,4273.461426,4256.282227,4271.538574,4277.820313,4263.205078,4262.05127,4238.461426,4255.512695,4246.153809,4255.384766,4149.358887,4282.436035,3625,3,73,,,,0,4,4,4,4,4,4,4,4,4,4,4,4,4,4,100,,,,,,,,,,,,,,,,,20,0,0.602725,0.140259,-0.718445,0.317627,0.972183,-0.287602,-0.064942,-27.963684,-100.639351,-6.729228
1648680337,1648680337,81,0,4271.922852,4224.871582,4263.333496,4250.769043,4263.077148,4263.589844,4257.692383,4260.769043,4233.333496,4238.846191,4227.05127,4239.358887,4135.128418,4271.538574,3627,3,73,,,,0,4,4,4,4,4,4,4,4,4,4,4,4,4,4,100,,,,,,,,,,,,,,,,,,,,,,,,,,,,
1648680337,1648680337,82,0,4264.230957,4233.717773,4257.307617,4248.461426,4265.769043,4270.256348,4253.077148,4255.641113,4227.307617,4230.897461,4213.461426,4230.897461,4132.692383,4263.846191,3610,3,73,,,,0,4,4,4,4,4,4,4,4,4,4,4,4,4,4,100,,,,,,,,,,,,,,,,,,,,,,,,,,,,
1648680337,1648680337,83,0,4252.179688,4217.307617,4245.512695,4232.179688,4255.769043,4262.94873,4244.615234,4238.461426,4211.410156,4225.384766,4207.05127,4220.641113,4109.743652,4248.205078,3603,3,73,,,,0,4,4,4,4,4,4,4,4,4,4,4,4,4,4,100,,,,,,,,,,,,,,,,,,,,,,,,,,,,
1648680337,1648680337,84,0,4253.077148,4211.794922,4244.487305,4231.794922,4247.563965,4252.436035,4243.589844,4232.307617,4211.153809,4222.820313,4202.179688,4217.820313,4108.974121,4247.563965,3625,3,73,,,,0,4,4,4,4,4,4,4,4,4,4,4,4,4,4,100,,,,,,,,,,,,,,,,,21,0,0.60231,0.139954,-0.718933,0.317444,0.959976,-0.282719,-0.080079,-29.907682,-101.087967,-4.934768
1648680337,1648680337,85,0,4241.794922,4228.974121,4236.922852,4236.282227,4239.102539,4239.615234,4232.05127,4224.487305,4206.410156,4210.384766,4184.487305,4207.563965,4110.769043,4244.102539,3627,3,73,,,,0,4,4,4,4,4,4,4,4,4,4,4,4,4,4,100,,,,,,,,,,,,,,,,,,,,,,,,,,,,
1648680337,1648680337,86,0,4237.820313,4227.820313,4234.871582,4231.922852,4243.974121,4241.794922,4233.205078,4227.05127,4202.179688,4206.794922,4199.102539,4209.871582,4073.974365,4246.794922,3610,3,73,,,,0,4,4,4,4,4,4,4,4,4,4,4,4,4,4,100,,,,,,,,,,,,,,,,,,,,,,,,,,,,
1648680337,1648680337,87,0,4249.615234,4205.512695,4237.05127,4221.410156,4243.846191,4244.743652,4235.769043,4231.282227,4202.820313,4205.128418,4212.563965,4216.794922,4054.743652,4251.538574,3603,3,73,,,,0,4,4,4,4,4,4,4,4,4,4,4,4,4,4,100,,,,,,,,,,,,,,,,,,,,,,,,,,,,
1648680337,1648680337,88,0,4251.282227,4218.333496,4238.461426,4227.820313,4242.563965,4245.128418,4236.794922,4241.025879,4211.666504,4206.538574,4192.05127,4211.153809,4094.743652,4244.487305,3625,3,73,,,,0,4,4,4,4,4,4,4,4,4,4,4,4,4,4,100,,,,,,,,,,,,,,,,,22,0,0.601861,0.140564,-0.719055,0.317749,0.9673,-0.282231,-0.084474,-29.309528,-101.237503,-6.131075
1648680337,1648680337,89,0,4213.333496,4214.871582,4217.307617,4215.769043,4230,4236.794922,4231.922852,4234.871582,4202.94873,4197.179688,4165.384766,4181.025879,4097.820313,4214.102539,3627,3,73,,,,0,4,4,4,4,4,4,4,4,4,4,4,4,4,4,100,,,,,,,,,,,,,,,,,,,,,,,,,,,,
1648680337,1648680337,90,0,4203.974121,4200.897461,4208.974121,4203.077148,4224.743652,4230.897461,4231.282227,4222.179688,4193.846191,4193.717773,4168.974121,4173.589844,4081.025635,4207.307617,3610,3,73,,,,0,4,4,4,4,4,4,4,4,4,4,4,4,4,4,100,,,,,,,,,,,,,,,,,,,,,,,,,,,,
1648680337,1648680337,91,0,4228.333496,4217.692383,4219.102539,4212.307617,4227.179688,4222.179688,4225,4221.410156,4197.05127,4199.743652,4182.05127,4191.794922,4077.820557,4219.615234,3603,3,73,,,,0,4,4,4,4,4,4,4,4,4,4,4,4,4,4,100,,,,,,,,,,,,,,,,,,,,,,,,,,,,
1648680337,1648680337,92,0,4224.102539,4216.922852,4212.820313,4210.512695,4224.743652,4218.461426,4218.461426,4216.666504,4197.692383,4196.538574,4168.077148,4187.820313,4082.564209,4217.179688,3625,3,73,,,,0,4,4,4,4,4,4,4,4,4,4,4,4,4,4,100,,,,,,,,,,,,,,,,,23,0,0.601396,0.142273,-0.718811,0.31842,0.964858,-0.263188,-0.096193,-27.36553,-101.985199,-6.57969
1648680337,1648680337,93,0,4215,4196.922852,4212.05127,4202.179688,4230.641113,4230.897461,4224.487305,4212.05127,4201.794922,4200.769043,4178.717773,4186.025879,4079.871826,4223.974121,3627,3,73,,,,0,4,4,4,4,4,4,4,4,4,4,4,4,4,4,100,1,75,4,4,3,4,3,3,4,4,4,4,4,4,3,4,,,,,,,,,,,,
1648680337,1648680337,94,0,4228.589844,4217.692383,4224.102539,4213.461426,4239.743652,4237.179688,4227.307617,4218.205078,4206.282227,4214.358887,4220.384766,4198.461426,4043.461426,4231.922852,3610,3,73,,,,0,4,4,4,4,4,4,4,4,4,4,4,4,4,4,100,,,,,,,,,,,,,,,,,,,,,,,,,,,,
1648680337,1648680337,95,0,4237.307617,4232.307617,4229.615234,4227.05127,4242.307617,4235.256348,4226.922852,4227.692383,4209.487305,4222.05127,4224.615234,4202.94873,4032.820557,4228.846191,3603,3,73,,,,0,4,4,4,4,4,4,4,4,4,4,4,4,4,4,100,,,,,,,,,,,,,,,,,,,,,,,,,,,,
1648680337,1648680337,96,0,4217.179688,4200.256348,4214.102539,4208.333496,4230.641113,4228.461426,4221.410156,4210.256348,4197.692383,4204.230957,4178.846191,4188.333496,4058.076904,4222.436035,3625,3,73,,,,0,4,4,4,4,4,4,4,4,4,4,4,4,4,4,100,,,,,,,,,,,,,,,,,24,0,0.601164,0.143799,-0.718323,0.319275,0.978042,-0.277348,-0.084962,-28.711376,-99.592583,-5.981536
1648680337,1648680337,97,0,4211.282227,4198.974121,4213.717773,4204.743652,4239.871582,4238.205078,4228.077148,4210.769043,4202.179688,4200.641113,4155.512695,4185.641113,4094.871826,4224.615234,3627,3,73,,,,0,4,4,4,4,4,4,4,4,4,4,4,4,4,4,100,,,,,,,,,,,,,,,,,,,,,,,,,,,,
1648680337,1648680337,98,0,4209.102539,4210.641113,4212.563965,4209.615234,4246.922852,4241.794922,4232.436035,4220.769043,4206.538574,4198.589844,4158.974121,4180.897461,4092.564209,4213.205078,3610,3,73,,,,0,4,4,4,4,4,4,4,4,4,4,4,4,4,4,100,,,,,,,,,,,,,,,,,,,,,,,,,,,,
1648680337,1648680337,99,0,4222.820313,4217.05127,4220.256348,4224.743652,4251.282227,4249.358887,4243.589844,4235.128418,4220.641113,4206.666504,4175.128418,4190.769043,4084.743652,4222.94873,3603,3,73,,,,0,4,4,4,4,4,4,4,4,4,4,4,4,4,4,100,,,,,,,,,,,,,,,,,,,,,,,,,,,,
1648680337,1648680337,100,0,4227.436035,4218.333496,4218.974121,4225,4240.769043,4242.563965,4239.871582,4238.846191,4227.436035,4209.487305,4177.692383,4194.487305,4064.358887,4231.282227,3625,3,73,,,,0,4,4,4,4,4,4,4,4,4,4,4,4,4,4,100,,,,,,,,,,,,,,,,,25,0,0.601183,0.143311,-0.718079,0.320007,0.9673,-0.309087,-0.065919,-28.711376,-100.041199,-6.729228
1648680337,1648680337,101,0,4241.666504,4230.128418,4232.307617,4232.436035,4249.230957,4246.025879,4243.205078,4251.410156,4241.282227,4227.179688,4203.205078,4213.205078,4067.94873,4249.487305,3627,3,73,,,,0,4,4,4,4,4,4,4,4,4,4,4,4,4,4,100,,,,,,,,,,,,,,,,,,,,,,,,,,,,
1648680337,1648680337,102,0,4242.436035,4226.794922,4236.922852,4234.358887,4255.641113,4248.974121,4243.077148,4252.563965,4244.615234,4236.153809,4213.461426,4218.205078,4093.205078,4252.692383,3610,3,73,,,,0,4,4,4,4,4,4,4,4,4,4,4,4,4,4,100,,,,,,,,,,,,,,,,,,,,,,,,,,,,
1648680337,1648680337,103,0,4239.102539,4231.153809,4233.717773,4239.358887,4257.94873,4257.307617,4249.230957,4254.230957,4244.358887,4232.692383,4204.615234,4212.307617,4098.974121,4243.717773,3603,3,73,,,,0,4,4,4,4,4,4,4,4,4,4,4,4,4,4,100,,,,,,,,,,,,,,,,,,,,,,,,,,,,
1648680337,1648680337,104,0,4243.846191,4234.487305,4236.025879,4243.205078,4260.384766,4262.05127,4253.589844,4256.153809,4245.897461,4230.384766,4199.487305,4215,4082.435791,4244.871582,3625,3,73,,,,0,4,4,4,4,4,4,4,4,4,4,4,4,4,4,100,,,,,,,,,,,,,,,,,26,0,0.601151,0.141907,-0.718384,0.320007,0.963882,-0.317388,-0.067872,-29.608606,-100.639351,-7.476921
1648680337,1648680337,105,0,4257.436035,4232.307617,4254.358887,4251.666504,4277.307617,4273.717773,4265.384766,4266.922852,4256.410156,4242.94873,4220.128418,4235.512695,4083.974365,4266.282227,3627,3,73,,,,0,4,4,4,4,4,4,4,4,4,4,4,4,4,4,100,,,,,,,,,,,,,,,,,,,,,,,,,,,,
1648680337,1648680337,106,0,4261.922852,4239.615234,4262.563965,4261.538574,4285,4282.820313,4271.922852,4276.538574,4264.743652,4253.205078,4229.102539,4243.333496,4098.846191,4273.205078,3610,3,73,,,,0,4,4,4,4,4,4,4,4,4,4,4,4,4,4,100,,,,,,,,,,,,,,,,,,,,,,,,,,,,
1648680337,1648680337,107,0,4265.641113,4258.589844,4262.692383,4270.256348,4282.820313,4284.871582,4268.846191,4277.94873,4268.717773,4254.230957,4229.487305,4242.94873,4101.794922,4269.487305,3603,3,73,,,,0,4,4,4,4,4,4,4,4,4,4,4,4,4,4,100,,,,,,,,,,,,,,,,,,,,,,,,,,,,
1648680337,1648680337,108,0,4276.794922,4254.615234,4275.512695,4279.358887,4292.05127,4295,4276.794922,4283.461426,4280,4259.102539,4243.461426,4255.641113,4104.743652,4280.769043,3625,3,73,,,,0,4,4,4,4,4,4,4,4,4,4,4,4,4,4,100,,,,,,,,,,,,,,,,,27,0,0.601064,0.141418,-0.718689,0.319702,0.949233,-0.290044,-0.062989,-28.711376,-98.545815,-6.280613
1648680337,1648680337,109,0,4269.615234,4225.384766,4272.436035,4264.743652,4287.692383,4292.179688,4277.436035,4275.769043,4273.589844,4252.307617,4231.538574,4248.333496,4110.384766,4276.666504,3627,3,73,,,,0,4,4,4,4,4,4,4,4,4,4,4,4,4,4,100,,,,,,,,,,,,,,,,,,,,,,,,,,,,
1648680337,1648680337,110,0,4267.94873,4227.820313,4268.589844,4258.717773,4285.128418,4288.846191,4272.820313,4277.94873,4272.692383,4258.846191,4224.871582,4244.102539,4120.769043,4273.974121,3610,3,73,,,,0,4,4,4,4,4,4,4,4,4,4,4,4,4,4,100,,,,,,,,,,,,,,,,,,,,,,,,,,,,
1648680337,1648680337,111,0,4270.512695,4246.153809,4271.538574,4267.692383,4289.871582,4293.333496,4273.077148,4291.282227,4282.05127,4264.230957,4230.128418,4248.589844,4121.025879,4275.641113,3603,3,73,,,,0,4,4,4,4,4,4,4,4,4,4,4,4,4,4,100,,,,,,,,,,,,,,,,,,,,,,,,,,,,
1648680337,1648680337,112,0,4273.717773,4249.358887,4277.307617,4276.025879,4296.153809,4302.692383,4285.897461,4306.282227,4295.384766,4267.563965,4240.128418,4255.641113,4123.205078,4278.846191,3625,3,73,,,,0,4,4,4,4,4,4,4,4,4,4,4,4,4,4,100,,,,,,,,,,,,,,,,,28,0,0.601086,0.141113,-0.719055,0.31897,0.960464,-0.288579,-0.08838,-29.907682,-100.639351,-7.028306
1648680337,1648680337,113,0,4264.615234,4239.615234,4266.153809,4262.436035,4282.563965,4287.563965,4280,4293.974121,4285.256348,4259.230957,4236.410156,4241.282227,4105.384766,4267.94873,3627,3,73,,,,0,4,4,4,4,4,4,4,4,4,4,4,4,4,4,100,,,,,,,,,,,,,,,,,,,,,,,,,,,,
1648680337,1648680337,114,0,4270.897461,4247.05127,4271.922852,4265.512695,4285.128418,4286.538574,4281.153809,4292.692383,4286.410156,4262.436035,4242.179688,4242.692383,4100.897461,4272.94873,3610,3,73,,,,0,4,4,4,4,4,4,4,4,4,4,4,4,4,4,100,,,,,,,,,,,,,,,,,,,,,,,,,,,,
1648680337,1648680337,115,0,4268.717773,4242.179688,4269.102539,4262.563965,4283.077148,4287.179688,4277.179688,4291.153809,4282.436035,4258.846191,4232.820313,4242.692383,4109.615234,4271.153809,3603,3,73,,,,0,4,4,4,4,4,4,4,4,4,4,4,4,4,4,100,,,,,,,,,,,,,,,,,,,,,,,,,,,,
1648680337,1648680337,116,0,4268.461426,4240.641113,4263.717773,4260.256348,4284.615234,4288.974121,4274.743652,4293.974121,4282.307617,4262.692383,4231.538574,4243.846191,4125.897461,4273.205078,3625,3,73,,,,0,4,4,4,4,4,4,4,4,4,4,4,4,4,4,100,,,,,,,,,,,,,,,,,29,0,0.600749,0.141479,-0.719238,0.319031,0.976577,-0.282231,-0.077638,-30.954453,-100.489815,-5.383383
1648680337,1648680337,117,0,4265.256348,4237.94873,4258.717773,4259.358887,4284.230957,4283.333496,4270.128418,4289.102539,4281.794922,4260.384766,4235.384766,4239.230957,4115.512695,4269.871582,3627,3,73,,,,0,4,4,4,4,4,4,4,4,4,4,4,4,4,4,100,,,,,,,,,,,,,,,,,,,,,,,,,,,,
1648680337,1648680337,118,0,4276.282227,4249.358887,4272.179688,4269.871582,4292.179688,4289.358887,4280.128418,4288.589844,4288.461426,4268.461426,4246.922852,4248.077148,4120.128418,4278.974121,3610,3,73,,,,0,4,4,4,4,4,4,4,4,4,4,4,4,4,4,100,,,,,,,,,,,,,,,,,,,,,,,,,,,,
1648680337,1648680337,119,0,4285.897461,4256.410156,4283.077148,4274.487305,4298.589844,4295.897461,4284.358887,4291.025879,4288.461426,4276.538574,4249.358887,4256.922852,4151.282227,4289.615234,3603,3,73,,,,0,4,4,4,4,4,4,4,4,4,4,4,4,4,4,100,,,,,,,,,,,,,,,,,,,,,,,,,,,,
1648680337,1648680337,120,0,4288.461426,4256.538574,4283.717773,4276.922852,4306.922852,4300.512695,4284.743652,4297.05127,4288.846191,4274.871582,4250.512695,4262.820313,4161.282227,4295.512695,3625,3,73,,,,0,4,4,4,4,4,4,4,4,4,4,4,4,4,4,100,,,,,,,,,,,,,,,,,30,0,0.600568,0.142761,-0.719055,0.319214,0.958511,-0.274907,-0.093751,-29.010452,-100.489815,-6.878767
1648680337,1648680337,121,0,4285.897461,4254.615234,4278.077148,4279.871582,4306.922852,4296.410156,4283.717773,4299.743652,4295.641113,4274.102539,4257.179688,4265.897461,4142.179688,4295.384766,3627,3,73,,,,0,4,4,4,4,4,4,4,4,4,4,4,4,4,4,100,,,,,,,,,,,,,,,,,,,,,,,,,,,,
1648680337,1648680337,122,0,4292.692383,4261.538574,4286.666504,4293.077148,4309.615234,4303.205078,4288.205078,4307.94873,4306.794922,4282.563965,4265.128418,4268.333496,4150.897461,4300.128418,3610,3,73,,,,0,4,4,4,4,4,4,4,4,4,4,4,4,4,4,100,,,,,,,,,,,,,,,,,,,,,,,,,,,,
1648680337,1648680337,123,0,4310,4268.589844,4309.871582,4309.230957,4324.230957,4322.05127,4298.717773,4328.717773,4319.743652,4295,4275.256348,4281.538574,4179.358887,4316.153809,3603,3,73,,,,0,4,4,4,4,4,4,4,4,4,4,4,4,4,4,100,,,,,,,,,,,,,,,,,,,,,,,,,,,,
1648680337,1648680337,124,0,4308.205078,4263.205078,4304.615234,4299.487305,4317.563965,4315.384766,4296.794922,4327.179688,4313.077148,4291.538574,4272.820313,4280.641113,4166.666504,4312.820313,3625,3,73,,,,0,4,4,4,4,4,4,4,4,4,4,4,4,4,4,100,,,,,,,,,,,,,,,,,31,0,0.600635,0.144348,-0.718628,0.319336,0.979995,-0.31397,-0.089357,-29.608606,-99.592583,-6.280613
1648680337,1648680337,125,0,4304.615234,4262.05127,4293.461426,4295.512695,4312.307617,4310.512695,4293.974121,4320.256348,4309.230957,4289.871582,4273.974121,4277.692383,4147.820313,4313.205078,3627,3,73,,,,0,4,4,4,4,4,4,4,4,4,4,4,4,4,4,100,,,,,,,,,,,,,,,,,,,,,,,,,,,,
1648680337,1648680337,126,0,4299.743652,4250.384766,4291.025879,4298.077148,4317.307617,4315.128418,4288.589844,4320,4311.025879,4285,4268.974121,4274.743652,4153.205078,4314.871582,3610,3,73,,,,0,4,4,4,4,4,4,4,4,4,4,4,4,4,4,100,,,,,,,,,,,,,,,,,,,,,,,,,,,,
1648680337,1648680337,127,0,4294.230957,4249.102539,4293.333496,4296.025879,4321.410156,4320.641113,4290.769043,4330.512695,4318.461426,4287.94873,4263.717773,4270,4164.358887,4306.922852,55,3,73,,,,0,4,4,4,4,4,4,4,4,4,4,4,4,4,4,100,,,,,,,,,,,,,,,,,,,,,,,,,,,,
1648680337,1648680337,0,0,4276.410156,4256.666504,4276.410156,4279.487305,4304.743652,4309.487305,4284.487305,4317.436035,4301.666504,4277.563965,4248.077148,4248.589844,4142.179688,4284.358887,3611,3,73,,,,0,4,4,4,4,4,4,4,4,4,4,4,4,4,4,100,,,,,,,,,,,,,,,,,0,0,0.60112,0.143982,-0.718323,0.319275,0.982925,-0.304692,-0.063966,-29.15999,-99.29351,-6.729228
1648680337,1648680337,1,0,4282.05127,4261.025879,4275.384766,4283.589844,4309.230957,4313.333496,4282.179688,4312.563965,4301.538574,4277.692383,4252.563965,4252.820313,4142.436035,4292.05127,3593,3,73,,,,0,4,4,4,4,4,4,4,4,4,4,4,4,4,4,100,,,,,,,,,,,,,,,,,,,,,,,,,,,,
1648680337,1648680337,2,0,4289.487305,4251.282227,4278.846191,4285.769043,4313.846191,4314.615234,4277.307617,4321.153809,4315.641113,4273.077148,4258.077148,4261.794922,4153.333496,4298.846191,3604,3,73,,,,0,4,4,4,4,4,4,4,4,4,4,4,4,4,4,100,,,,,,,,,,,,,,,,,,,,,,,,,,,,
1648680337,1648680337,3,0,4295.384766,4266.794922,4288.846191,4300.128418,4321.410156,4322.94873,4290.256348,4332.307617,4325.769043,4290.256348,4270.512695,4265.641113,4153.205078,4299.615234,3094,3,73,,,,0,4,4,4,4,4,4,4,4,4,4,4,4,4,4,100,,,,,,,,,,,,,,,,,,,,,,,,,,,,
1648680337,1648680337,4,0,4291.410156,4272.94873,4287.179688,4307.692383,4321.282227,4327.05127,4294.871582,4324.743652,4319.358887,4309.487305,4273.846191,4263.077148,4147.820313,4301.153809,3638,3,73,,,,0,4,4,4,4,4,4,4,4,4,4,4,4,4,4,100,,,,,,,,,,,,,,,,,1,0,0.601713,0.142883,-0.718506,0.318237,0.974624,-0.294438,-0.062013,-27.814146,-100.938431,-5.831998
1648680337,1648680337,5,0,4291.922852,4263.461426,4285.512695,4302.563965,4324.487305,4329.487305,4297.05127,4347.436035,4327.94873,4276.666504,4268.589844,4271.282227,4169.230957,4309.871582,3613,3,73,,,,0,4,4,4,4,4,4,4,4,4,4,4,4,4,4,100,,,,,,,,,,,,,,,,,,,,,,,,,,,,
1648680337,1648680337,6,0,4292.563965,4261.538574,4285.897461,4297.563965,4327.436035,4322.820313,4293.589844,4369.871582,4331.153809,4246.153809,4262.05127,4272.94873,4186.410156,4306.282227,3387,3,73,,,,0,4,4,4,4,4,4,4,4,4,4,4,4,4,4,100,,,,,,,,,,,,,,,,,,,,,,,,,,,,
1648680337,1648680337,7,0,4300.897461,4271.282227,4295.512695,4309.615234,4322.692383,4330.769043,4284.743652,4341.538574,4318.077148,4291.794922,4271.794922,4273.717773,4178.205078,4306.410156,3585,3,73,,,,0,4,4,4,4,4,4,4,4,4,4,4,4,4,4,100,,,,,,,,,,,,,,,,,,,,,,,,,,,,
1648680337,1648680337,8,0,4303.205078,4271.922852,4296.794922,4311.922852,4309.871582,4336.922852,4273.589844,4310.384766,4312.307617,4322.820313,4277.436035,4273.333496,4159.615234,4309.615234,3568,3,73,,,,0,4,4,4,4,4,4,4,4,4,4,4,4,4,4,100,,,,,,,,,,,,,,,,,2,0,0.601732,0.142029,-0.71936,0.31665,0.956069,-0.270024,-0.069825,-28.26276,-99.443047,-6.878767
1648680337,1648680337,9,0,4306.922852,4277.563965,4301.666504,4313.717773,4330.256348,4330.384766,4285.128418,4336.794922,4332.05127,4300.384766,4280.256348,4280.256348,4170.512695,4319.230957,3590,3,73,,,,0,4,4,4,4,4,4,4,4,4,4,4,4,4,4,100,,,,,,,,,,,,,,,,,,,,,,,,,,,,
1648680337,1648680337,10,0,4313.717773,4276.922852,4312.820313,4318.974121,4353.846191,4326.538574,4297.05127,4360.641113,4343.205078,4294.230957,4290.897461,4290.641113,4192.94873,4328.846191,3635,3,73,,,,0,4,4,4,4,4,4,4,4,4,4,4,4,4,4,100,,,,,,,,,,,,,,,,,,,,,,,,,,,,
1648680337,1648680337,11,0,4300.769043,4257.820313,4303.205078,4302.563965,4321.410156,4325.897461,4280.769043,4330.512695,4318.333496,4291.666504,4284.871582,4278.333496,4173.077148,4315.641113,3627,3,73,,,,0,4,4,4,4,4,4,4,4,4,4,4,4,4,4,100,,,,,,,,,,,,,,,,,,,,,,,,,,,,
1648680337,1648680337,12,0,4285,4246.794922,4288.077148,4287.307617,4288.717773,4322.179688,4272.436035,4318.333496,4305.769043,4262.307617,4266.410156,4261.922852,4136.282227,4301.153809,3637,3,73,,,,0,4,4,4,4,4,4,4,4,4,4,4,4,4,4,100,,,,,,,,,,,,,,,,,3,0,0.60165,0.142212,-0.719849,0.315613,0.966323,-0.261723,-0.078126,-27.215992,-100.340279,-5.68246
1648680337,1648680337,13,0,4276.410156,4248.333496,4279.102539,4282.692383,4290.384766,4313.077148,4276.794922,4326.153809,4298.589844,4227.05127,4246.025879,4250.128418,4120.641113,4290.128418,3629,3,73,,,,0,4,4,4,4,4,4,4,4,4,4,4,4,4,4,100,,,,,,,,,,,,,,,,,,,,,,,,,,,,
1648680337,1648680337,14,0,4281.282227,4257.05127,4285.512695,4287.820313,4309.230957,4317.820313,4283.077148,4324.871582,4287.05127,4227.436035,4247.179688,4253.974121,4136.922852,4293.589844,3635,3,73,,,,0,4,4,4,4,4,4,4,4,4,4,4,4,4,4,100,,,,,,,,,,,,,,,,,,,,,,,,,,,,
1648680337,1648680337,15,0,4271.922852,4248.461426,4278.461426,4278.846191,4296.410156,4308.205078,4276.153809,4306.922852,4275.128418,4233.846191,4246.410156,4248.589844,4139.358887,4288.205078,3627,3,73,,,,0,4,4,4,4,4,4,4,4,4,4,4,4,4,4,100,,,,,,,,,,,,,,,,,,,,,,,,,,,,
1648680337,1648680337,16,0,4267.179688,4237.94873,4270.256348,4271.794922,4283.077148,4303.589844,4277.179688,4310,4282.692383,4228.846191,4242.179688,4242.307617,4129.743652,4282.307617,0,3,73,,,,0,4,4,4,4,4,4,4,4,4,4,4,4,4,4,100,,,,,,,,,,,,,,,,,4,0,0.601513,0.142578,-0.719971,0.31543,0.984878,-0.271489,-0.090822,-29.010452,-100.489815,-6.131075
1648680337,1648680337,17,0,4262.820313,4238.589844,4264.358887,4264.358887,4296.666504,4306.410156,4282.307617,4314.102539,4281.538574,4209.615234,4234.230957,4235.897461,4117.307617,4275.512695,0,3,73,,,,0,4,4,4,4,4,4,4,4,4,4,4,4,4,4,100,,,,,,,,,,,,,,,,,,,,,,,,,,,,
1648680337,1648680337,18,0,4272.307617,4253.205078,4278.589844,4280.384766,4319.358887,4322.436035,4301.025879,4324.487305,4296.410156,4221.922852,4252.820313,4253.333496,4125.641113,4287.820313,0,3,73,,,,0,4,4,4,4,4,4,4,4,4,4,4,4,4,4,100,,,,,,,,,,,,,,,,,,,,,,,,,,,,
1648680337,1648680337,19,0,4272.820313,4245.641113,4277.692383,4280.641113,4292.179688,4323.461426,4293.333496,4323.974121,4302.179688,4229.102539,4261.538574,4257.692383,4120.256348,4287.05127,0,3,73,,,,0,4,4,4,4,4,4,4,4,4,4,4,4,4,4,100,,,,,,,,,,,,,,,,,,,,,,,,,,,,
1648680337,1648680337,20,0,4271.410156,4243.077148,4273.717773,4272.436035,4272.436035,4314.102539,4276.538574,4326.666504,4300.384766,4230.512695,4258.205078,4252.307617,4127.692383,4286.282227,0,3,73,,,,0,4,4,4,4,4,4,4,4,4,4,4,4,4,4,100,,,,,,,,,,,,,,,,,5,0,0.601124,0.143616,-0.719849,0.315979,0.972671,-0.280766,-0.102541,-28.26276,-99.143967,-5.383383
1648680337,1648680337,21,0,4261.282227,4241.282227,4268.846191,4268.333496,4275.641113,4293.205078,4271.794922,4325.641113,4298.077148,4216.538574,4246.153809,4242.179688,4131.410156,4280.769043,0,3,73,,,,0,4,4,4,4,4,4,4,4,4,4,4,4,4,4,100,,,,,,,,,,,,,,,,,,,,,,,,,,,,
1648680337,1648680337,22,0,4262.436035,4243.205078,4271.025879,4271.794922,4275.256348,4293.077148,4281.410156,4318.205078,4293.077148,4206.666504,4244.230957,4244.230957,4121.922852,4279.615234,0,3,73,,,,0,4,4,4,4,4,4,4,4,4,4,4,4,4,4,100,,,,,,,,,,,,,,,,,,,,,,,,,,,,
1648680337,1648680338,23,0,4268.846191,4245.641113,4271.538574,4269.230957,4269.230957,4298.846191,4278.461426,4309.358887,4277.692383,4212.05127,4243.974121,4247.563965,4120.384766,4281.282227,0,3,73,,,,0,4,4,4,4,4,4,4,4,4,4,4,4,4,4,100,,,,,,,,,,,,,,,,,,,,,,,,,,,,
1648680337,1648680338,24,0,4274.230957,4248.461426,4276.666504,4275.128418,4276.666504,4299.230957,4278.077148,4319.230957,4282.436035,4214.487305,4250.641113,4253.461426,4125.512695,4288.846191,0,3,73,,,,0,4,4,4,4,4,4,4,4,4,4,4,4,4,4,100,,,,,,,,,,,,,,,,,6,0,0.60122,0.144958,-0.719177,0.316711,0.973159,-0.309087,-0.082033,-29.608606,-100.041199,-4.934768
1648680337,1648680338,25,0,4266.666504,4240.512695,4273.974121,4276.922852,4269.615234,4294.615234,4275.641113,4318.846191,4287.820313,4202.307617,4252.94873,4250.384766,4107.436035,4283.974121,0,3,73,,,,0,4,4,4,4,4,4,4,4,4,4,4,4,4,4,100,,,,,,,,,,,,,,,,,,,,,,,,,,,,
1648680337,1648680338,26,0,4258.846191,4239.871582,4264.871582,4267.563965,4256.025879,4290,4267.820313,4299.358887,4270.512695,4202.179688,4241.922852,4239.871582,4098.974121,4273.205078,0,3,73,,,,0,4,4,4,4,4,4,4,4,4,4,4,4,4,4,100,,,,,,,,,,,,,,,,,,,,,,,,,,,,
1648680338,1648680338,27,0,4268.461426,4249.230957,4272.820313,4271.922852,4261.922852,4294.358887,4275,4303.974121,4270.256348,4216.922852,4239.102539,4244.358887,4125.641113,4280,0,3,73,,,,0,4,4,4,4,4,4,4,4,4,4,4,4,4,4,100,,,,,,,,,,,,,,,,,,,,,,,,,,,,
1648680338,1648680338,28,0,4267.436035,4239.743652,4273.846191,4270.641113,4261.025879,4291.666504,4278.974121,4311.153809,4274.615234,4206.538574,4234.743652,4242.94873,4131.025879,4279.102539,0,3,73,,,,0,4,4,4,4,4,4,4,4,4,4,4,4,4,4,100,,,,,,,,,,,,,,,,,7,0,0.602156,0.145874,-0.718262,0.316589,0.96437,-0.295903,-0.056153,-30.804913,-100.639351,-5.233844
1648680338,1648680338,29,0,4258.205078,4231.538574,4265.897461,4260,4253.589844,4290.384766,4274.358887,4304.615234,4269.358887,4194.230957,4235.769043,4237.94873,4110.897461,4273.461426,0,3,73,,,,0,4,4,4,4,4,4,4,4,4,4,4,4,4,4,100,1,75,4,4,3,4,3,3,4,3,3,4,4,4,3,4,,,,,,,,,,,,
1648680338,1648680338,30,0,4260.512695,4239.230957,4264.743652,4258.589844,4254.102539,4292.307617,4272.692383,4303.077148,4266.153809,4193.205078,4244.102539,4238.461426,4093.461426,4274.102539,0,3,73,,,,0,4,4,4,4,4,4,4,4,4,4,4,4,4,4,100,,,,,,,,,,,,,,,,,,,,,,,,,,,,
1648680338,1648680338,31,0,4275.384766,4247.179688,4280.512695,4274.615234,4268.974121,4301.025879,4285.256348,4321.153809,4282.692383,4210.512695,4258.205078,4251.282227,4114.871582,4286.153809,0,3,73,,,,0,4,4,4,4,4,4,4,4,4,4,4,4,4,4,100,,,,,,,,,,,,,,,,,,,,,,,,,,,,
1648680338,1648680338,32,0,4260.512695,4234.743652,4270.897461,4263.846191,4260.769043,4294.230957,4282.563965,4310.512695,4272.436035,4208.846191,4240.769043,4237.436035,4127.94873,4271.794922,0,3,73,,,,0,4,4,4,4,4,4,4,4,4,4,4,4,4,4,100,,,,,,,,,,,,,,,,,8,0,0.603146,0.14563,-0.718018,0.315369,0.972671,-0.270024,-0.060548,-28.561836,-99.742119,-6.57969
1648680338,1648680338,33,0,4264.487305,4246.282227,4270.897461,4264.871582,4264.615234,4305.769043,4290,4304.487305,4265,4211.282227,4240.641113,4239.102539,4114.871582,4276.153809,0,3,73,,,,0,4,4,4,4,4,4,4,4,4,4,4,4,4,4,100,,,,,,,,,,,,,,,,,,,,,,,,,,,,
1648680338,1648680338,34,0,4281.410156,4255.384766,4282.563965,4280.256348,4276.666504,4317.179688,4300.897461,4316.025879,4275.128418,4211.794922,4256.666504,4259.743652,4100.641113,4297.692383,0,3,73,,,,0,4,4,4,4,4,4,4,4,4,4,4,4,4,4,100,,,,,,,,,,,,,,,,,,,,,,,,,,,,
1648680338,1648680338,35,0,4289.487305,4251.538574,4295.384766,4295.512695,4290.769043,4324.743652,4315.256348,4336.410156,4294.102539,4219.487305,4266.922852,4273.846191,4129.871582,4306.794922,0,3,73,,,,0,4,4,4,4,4,4,4,4,4,4,4,4,4,4,100,,,,,,,,,,,,,,,,,,,,,,,,,,,,
1648680338,1648680338,36,0,4274.358887,4242.692383,4285.897461,4283.717773,4285,4321.666504,4307.05127,4327.05127,4283.333496,4220.897461,4251.922852,4256.025879,4143.589844,4286.153809,0,3,73,,,,0,4,4,4,4,4,4,4,4,4,4,4,4,4,4,100,,,,,,,,,,,,,,,,,9,0,0.60365,0.144897,-0.718384,0.313904,0.971206,-0.25977,-0.075196,-27.36553,-99.443047,-4.635691
1648680338,1648680338,37,0,4276.922852,4251.282227,4288.205078,4284.487305,4288.461426,4325.769043,4304.487305,4329.871582,4283.974121,4231.410156,4253.589844,4257.05127,4136.025879,4289.871582,0,3,73,,,,0,4,4,4,4,4,4,4,4,4,4,4,4,4,4,100,,,,,,,,,,,,,,,,,,,,,,,,,,,,
1648680338,1648680338,38,0,4293.333496,4262.307617,4306.538574,4300,4304.102539,4327.692383,4312.436035,4351.794922,4305.256348,4247.05127,4275.641113,4279.615234,4127.94873,4312.436035,0,3,73,,,,0,4,4,4,4,4,4,4,4,4,4,4,4,4,4,100,,,,,,,,,,,,,,,,,,,,,,,,,,,,
1648680338,1648680338,39,0,4304.871582,4266.153809,4320.641113,4308.846191,4315.897461,4336.282227,4316.410156,4346.025879,4304.743652,4253.589844,4285.641113,4289.615234,4127.692383,4318.589844,0,3,73,,,,0,4,4,4,4,4,4,4,4,4,4,4,4,4,4,100,,,,,,,,,,,,,,,,,,,,,,,,,,,,
1648680338,1648680338,40,0,4299.487305,4249.230957,4311.282227,4301.025879,4309.230957,4339.102539,4307.05127,4316.666504,4281.922852,4243.461426,4269.871582,4278.333496,4133.974121,4306.410156,0,3,73,,,,0,4,4,4,4,4,4,4,4,4,4,4,4,4,4,100,,,,,,,,,,,,,,,,,10,0,0.603786,0.144287,-0.718872,0.312805,0.980484,-0.263188,-0.089357,-28.711376,-99.592583,-5.981536
1648680338,1648680338,41,0,4297.179688,4245.256348,4306.922852,4298.333496,4307.94873,4334.358887,4307.820313,4319.871582,4284.102539,4240.897461,4267.05127,4276.153809,4145.512695,4303.717773,0,3,73,,,,0,4,4,4,4,4,4,4,4,4,4,4,4,4,4,100,,,,,,,,,,,,,,,,,,,,,,,,,,,,
1648680338,1648680338,42,0,4303.205078,4257.436035,4317.94873,4300.512695,4312.05127,4331.410156,4310.128418,4333.333496,4292.05127,4250.512695,4274.871582,4281.153809,4144.871582,4306.922852,0,3,73,,,,0,4,4,4,4,4,4,4,4,4,4,4,4,4,4,100,,,,,,,,,,,,,,,,,,,,,,,,,,,,
1648680338,1648680338,43,0,4290.512695,4251.153809,4306.922852,4289.487305,4301.153809,4323.717773,4298.589844,4310,4268.589844,4237.179688,4255.641113,4267.820313,4122.179688,4294.871582,0,3,73,,,,0,4,4,4,4,4,4,4,4,4,4,4,4,4,4,100,,,,,,,,,,,,,,,,,,,,,,,,,,,,
1648680338,1648680338,44,0,4281.153809,4246.282227,4297.307617,4289.487305,4295.128418,4323.589844,4300.769043,4308.717773,4265.384766,4230.641113,4247.307617,4262.820313,4114.102539,4290,0,3,73,,,,0,4,4,4,4,4,4,4,4,4,4,4,4,4,4,100,,,,,,,,,,,,,,,,,11,0,0.603925,0.144287,-0.718994,0.312256,0.965347,-0.254887,-0.09424,-29.309528,-100.190735,-6.878767
1648680338,1648680338,45,0,4281.153809,4251.410156,4298.461426,4289.487305,4292.179688,4315,4300.128418,4321.025879,4276.153809,4232.307617,4256.666504,4263.333496,4108.077148,4286.538574,0,3,73,,,,0,4,4,4,4,4,4,4,4,4,4,4,4,4,4,100,,,,,,,,,,,,,,,,,,,,,,,,,,,,
1648680338,1648680338,46,0,4286.666504,4253.205078,4305,4289.102539,4298.205078,4314.743652,4296.538574,4320.641113,4281.922852,4239.487305,4262.94873,4267.436035,4111.025879,4287.94873,0,3,73,,,,0,4,4,4,4,4,4,4,4,4,4,4,4,4,4,100,,,,,,,,,,,,,,,,,,,,,,,,,,,,
1648680338,1648680338,47,0,4273.846191,4239.102539,4292.692383,4276.410156,4283.333496,4319.102539,4291.922852,4308.717773,4268.461426,4238.717773,4246.153809,4256.025879,4108.333496,4280.384766,0,3,73,,,,0,4,4,4,4,4,4,4,4,4,4,4,4,4,4,100,,,,,,,,,,,,,,,,,,,,,,,,,,,,
1648680338,1648680338,48,0,4265.769043,4237.05127,4282.94873,4271.666504,4271.153809,4315.897461,4286.922852,4306.282227,4257.436035,4232.820313,4239.358887,4249.358887,4102.179688,4277.179688,0,3,73,,,,0,4,4,4,4,4,4,4,4,4,4,4,4,4,4,100,,,,,,,,,,,,,,,,,12,0,0.603941,0.144653,-0.718933,0.312195,0.960952,-0.274418,-0.09424,-29.608606,-100.041199,-6.280613
1648680338,1648680338,49,0,4263.846191,4237.307617,4276.282227,4267.307617,4277.94873,4295.128418,4276.282227,4304.743652,4256.025879,4219.487305,4237.05127,4248.077148,4102.436035,4273.205078,0,3,73,,,,0,4,4,4,4,4,4,4,4,4,4,4,4,4,4,100,,,,,,,,,,,,,,,,,,,,,,,,,,,,
1648680338,1648680338,50,0,4279.358887,4251.025879,4292.436035,4280.641113,4306.153809,4306.794922,4293.974121,4320.897461,4278.846191,4242.05127,4256.666504,4267.94873,4131.794922,4289.615234,0,3,73,,,,0,4,4,4,4,4,4,4,4,4,4,4,4,4,4,100,,,,,,,,,,,,,,,,,,,,,,,,,,,,
1648680338,1648680338,51,0,4276.794922,4249.487305,4293.589844,4282.179688,4296.153809,4315.256348,4297.563965,4312.436035,4270,4250.769043,4264.102539,4266.794922,4122.94873,4289.358887,0,3,73,,,,0,4,4,4,4,4,4,4,4,4,4,4,4,4,4,100,,,,,,,,,,,,,,,,,,,,,,,,,,,,
1648680338,1648680338,52,0,4276.410156,4246.794922,4289.230957,4280.384766,4284.102539,4313.589844,4293.205078,4301.153809,4253.461426,4237.692383,4264.487305,4261.538574,4096.282227,4287.436035,0,3,73,,,,0,4,4,4,4,4,4,4,4,4,4,4,4,4,4,100,,,,,,,,,,,,,,,,,13,0,0.604119,0.145935,-0.718445,0.312378,0.9673,-0.267582,-0.102052,-29.758144,-100.489815,-6.131075
1648680338,1648680338,53,0,4282.692383,4245.641113,4293.589844,4278.717773,4291.922852,4315.128418,4293.717773,4308.589844,4262.820313,4237.94873,4262.94873,4269.358887,4108.589844,4289.871582,0,3,73,,,,0,4,4,4,4,4,4,4,4,4,4,4,4,4,4,100,,,,,,,,,,,,,,,,,,,,,,,,,,,,
1648680338,1648680338,54,0,4291.538574,4250,4306.410156,4283.461426,4305.512695,4320.128418,4297.05127,4321.666504,4279.230957,4260.384766,4266.922852,4284.230957,4143.589844,4298.717773,0,3,73,,,,0,4,4,4,4,4,4,4,4,4,4,4,4,4,4,100,,,,,,,,,,,,,,,,,,,,,,,,,,,,
1648680338,1648680338,55,0,4292.563965,4256.282227,4311.025879,4287.94873,4303.846191,4315.384766,4295.256348,4319.615234,4273.205078,4271.922852,4269.487305,4286.282227,4140.769043,4305.384766,0,3,73,,,,0,4,4,4,4,4,4,4,4,4,4,4,4,4,4,100,,,,,,,,,,,,,,,,,,,,,,,,,,,,
1648680338,1648680338,56,0,4291.282227,4257.05127,4312.05127,4285.897461,4286.666504,4327.820313,4305,4322.179688,4266.538574,4268.717773,4271.666504,4283.077148,4132.820313,4301.538574,0,3,73,,,,0,4,4,4,4,4,4,4,4,4,4,4,4,4,4,100,,,,,,,,,,,,,,,,,14,0,0.604862,0.146667,-0.71759,0.312561,0.9673,-0.300786,-0.079103,-30.804913,-100.041199,-5.981536
1648680338,1648680338,57,0,4281.666504,4243.974121,4304.615234,4275.897461,4272.05127,4325.769043,4300.512695,4317.179688,4263.461426,4251.282227,4265,4276.025879,4130.256348,4285.128418,0,3,73,,,,0,4,4,4,4,4,4,4,4,4,4,4,4,4,4,100,,,,,,,,,,,,,,,,,,,,,,,,,,,,
1648680338,1648680338,58,0,4275.897461,4241.282227,4298.589844,4275.384766,4280.897461,4304.615234,4287.05127,4305,4258.717773,4241.282227,4254.487305,4270.641113,4117.05127,4278.589844,0,3,73,,,,0,4,4,4,4,4,4,4,4,4,4,4,4,4,4,100,,,,,,,,,,,,,,,,,,,,,,,,,,,,
1648680338,1648680338,59,0,4292.307617,4253.077148,4312.05127,4288.974121,4306.153809,4311.025879,4299.102539,4318.974121,4268.846191,4266.410156,4263.205078,4286.410156,4126.666504,4299.487305,0,3,73,,,,0,4,4,4,4,4,4,4,4,4,4,4,4,4,4,100,,,,,,,,,,,,,,,,,,,,,,,,,,,,
1648680338,1648680338,60,0,4291.410156,4244.487305,4309.615234,4278.589844,4301.025879,4317.179688,4302.05127,4321.538574,4264.615234,4268.461426,4264.871582,4288.077148,4127.307617,4300,0,3,73,,,,0,4,4,4,4,4,4,4,4,4,4,4,4,4,4,100,,,,,,,,,,,,,,,,,15,0,0.605632,0.14679,-0.717102,0.312134,0.993667,-0.274907,-0.056153,-29.15999,-100.041199,-5.981536
1648680338,1648680338,61,0,4283.205078,4236.922852,4301.025879,4266.922852,4287.179688,4312.692383,4293.077148,4311.282227,4253.333496,4251.153809,4260.641113,4278.846191,4108.846191,4286.153809,0,3,73,,,,0,4,4,4,4,4,4,4,4,4,4,4,4,4,4,100,,,,,,,,,,,,,,,,,,,,,,,,,,,,
1648680338,1648680338,62,0,4280,4236.153809,4297.692383,4267.692383,4286.282227,4311.025879,4291.282227,4305.512695,4245.641113,4246.410156,4249.743652,4271.282227,4106.666504,4281.666504,0,3,73,,,,0,4,4,4,4,4,4,4,4,4,4,4,4,4,4,100,,,,,,,,,,,,,,,,,,,,,,,,,,,,
1648680338,1648680338,63,0,4275.384766,4226.282227,4296.538574,4264.487305,4282.179688,4325.769043,4301.794922,4312.692383,4248.205078,4247.436035,4243.589844,4269.358887,4125.641113,4284.615234,0,3,73,,,,0,4,4,4,4,4,4,4,4,4,4,4,4,4,4,100,,,,,,,,,,,,,,,,,,,,,,,,,,,,
1648680338,1648680338,64,0,4254.615234,4215.128418,4279.871582,4244.230957,4257.05127,4312.563965,4287.307617,4297.436035,4229.743652,4224.615234,4230.897461,4251.794922,4103.589844,4261.666504,3563,3,73,,,,0,4,4,4,4,4,4,4,4,4,4,4,4,4,4,100,,,,,,,,,,,,,,,,,16,0,0.606034,0.146606,-0.717224,0.311157,0.990738,-0.273442,-0.052735,-29.758144,-99.443047,-6.878767
1648680338,1648680338,65,0,4260.128418,4232.307617,4286.153809,4249.230957,4250.769043,4297.692383,4277.307617,4286.410156,4220.256348,4230.897461,4236.538574,4254.358887,4083.589844,4256.153809,3551,3,73,,,,0,4,4,4,4,4,4,4,4,4,4,4,4,4,4,100,,,,,,,,,,,,,,,,,,,,,,,,,,,,
1648680338,1648680338,66,0,4265.512695,4230.384766,4293.333496,4248.461426,4250.769043,4293.717773,4279.615234,4290.128418,4223.333496,4247.307617,4236.794922,4260.512695,4088.333252,4264.743652,3555,3,73,,,,0,4,4,4,4,4,4,4,4,4,4,4,4,4,4,100,,,,,,,,,,,,,,,,,,,,,,,,,,,,
1648680338,1648680338,67,0,4268.589844,4227.05127,4300,4248.333496,4267.436035,4305.897461,4294.102539,4314.230957,4243.333496,4259.358887,4244.358887,4273.717773,4113.846191,4277.436035,3039,3,73,,,,0,4,4,4,4,4,4,4,4,4,4,4,4,4,4,100,,,,,,,,,,,,,,,,,,,,,,,,,,,,
1648680338,1648680338,68,0,4271.538574,4235.512695,4302.436035,4253.589844,4280.256348,4302.05127,4287.820313,4317.563965,4249.487305,4261.538574,4251.922852,4283.846191,4135.128418,4280.128418,3585,3,73,,,,0,4,4,4,4,4,4,4,4,4,4,4,4,4,4,100,,,,,,,,,,,,,,,,,17,0,0.605621,0.147217,-0.717712,0.310547,0.982925,-0.248051,-0.059571,-29.907682,-100.041199,-7.476921
1648680338,1648680338,69,0,4276.794922,4237.820313,4304.358887,4262.94873,4274.230957,4300.128418,4280.384766,4300.384766,4240.256348,4258.589844,4251.025879,4281.538574,4136.410156,4279.358887,3602,3,73,,,,0,4,4,4,4,4,4,4,4,4,4,4,4,4,4,100,,,,,,,,,,,,,,,,,,,,,,,,,,,,
1648680338,1648680338,70,0,4268.974121,4226.922852,4297.94873,4259.358887,4261.922852,4302.820313,4287.05127,4288.717773,4225.641113,4247.307617,4239.743652,4266.666504,4105,4270.384766,3361,3,73,,,,0,4,4,4,4,4,4,4,4,4,4,4,4,4,4,100,,,,,,,,,,,,,,,,,,,,,,,,,,,,
1648680338,1648680338,71,0,4272.94873,4240.256348,4302.692383,4262.05127,4274.615234,4311.538574,4306.282227,4297.820313,4227.307617,4249.615234,4243.717773,4272.307617,4101.282227,4273.589844,3551,3,73,,,,0,4,4,4,4,4,4,4,4,4,4,4,4,4,4,100,,,,,,,,,,,,,,,,,,,,,,,,,,,,
1648680338,1648680338,72,0,4280.384766,4244.358887,4309.615234,4264.871582,4282.436035,4323.974121,4315.128418,4309.743652,4234.871582,4254.743652,4252.05127,4282.179688,4129.487305,4279.102539,3550,3,73,,,,0,4,4,4,4,4,4,4,4,4,4,4,4,4,4,100,,,,,,,,,,,,,,,,,18,0,0.604769,0.148621,-0.717957,0.310974,0.978042,-0.237308,-0.077638,-28.711376,-101.387047,-7.028306
1648680338,1648680338,73,0,4272.820313,4224.871582,4304.102539,4255.384766,4275.641113,4320.128418,4313.077148,4311.922852,4227.820313,4247.563965,4244.102539,4274.358887,4128.205078,4272.692383,3565,3,73,,,,0,4,4,4,4,4,4,4,4,4,4,4,4,4,4,100,,,,,,,,,,,,,,,,,,,,,,,,,,,,
1648680338,1648680338,74,0,4267.436035,4223.461426,4302.436035,4252.563965,4275.769043,4305.512695,4306.410156,4301.794922,4215,4243.461426,4235.641113,4270.384766,4112.179688,4269.358887,3577,3,73,,,,0,4,4,4,4,4,4,4,4,4,4,4,4,4,4,100,,,,,,,,,,,,,,,,,,,,,,,,,,,,
1648680338,1648680338,75,0,4272.692383,4233.077148,4302.179688,4253.333496,4274.230957,4301.153809,4296.025879,4283.717773,4206.282227,4241.922852,4230,4270.897461,4121.153809,4266.153809,3563,3,73,,,,0,4,4,4,4,4,4,4,4,4,4,4,4,4,4,100,,,,,,,,,,,,,,,,,,,,,,,,,,,,
1648680338,1648680338,76,0,4282.05127,4235.641113,4306.666504,4255.897461,4276.282227,4308.589844,4297.05127,4294.230957,4218.333496,4254.230957,4234.102539,4277.436035,4146.666504,4270,3580,3,73,,,,0,4,4,4,4,4,4,4,4,4,4,4,4,4,4,100,,,,,,,,,,,,,,,,,19,0,0.603782,0.150574,-0.717957,0.311951,0.971695,-0.258305,-0.107424,-27.963684,-99.29351,-7.775998
1648680338,1648680338,77,0,4272.820313,4229.615234,4303.205078,4247.94873,4268.333496,4298.333496,4293.205078,4298.461426,4214.871582,4249.743652,4231.538574,4271.794922,4146.666504,4266.666504,3582,3,73,,,,0,4,4,4,4,4,4,4,4,4,4,4,4,4,4,100,,,,,,,,,,,,,,,,,,,,,,,,,,,,
1648680338,1648680338,78,0,4271.538574,4228.205078,4303.846191,4246.794922,4263.589844,4295.512695,4290.512695,4288.333496,4206.922852,4241.922852,4235.256348,4271.538574,4142.94873,4264.230957,3577,3,73,,,,0,4,4,4,4,4,4,4,4,4,4,4,4,4,4,100,,,,,,,,,,,,,,,,,,,,,,,,,,,,
1648680338,1648680338,79,0,4269.743652,4218.077148,4298.333496,4242.820313,4258.461426,4293.461426,4284.102539,4276.153809,4203.461426,4241.282227,4231.794922,4272.563965,4133.205078,4257.563965,3563,3,73,,,,0,4,4,4,4,4,4,4,4,4,4,4,4,4,4,100,,,,,,,,,,,,,,,,,,,,,,,,,,,,
1648680338,1648680338,80,0,4270.641113,4219.487305,4302.179688,4248.717773,4267.05127,4294.230957,4288.205078,4284.871582,4211.025879,4252.692383,4230.641113,4277.692383,4138.589844,4261.410156,3580,3,73,,,,0,4,4,4,4,4,4,4,4,4,4,4,4,4,4,100,,,,,,,,,,,,,,,,,20,0,0.60341,0.151978,-0.717468,0.31311,0.952163,-0.292485,-0.102541,-29.010452,-99.742119,-7.925536
1648680338,1648680338,81,0,4260.641113,4219.615234,4294.230957,4242.307617,4259.230957,4286.410156,4283.846191,4281.666504,4202.05127,4243.846191,4220.641113,4263.589844,4138.077148,4248.717773,3582,3,73,,,,0,4,4,4,4,4,4,4,4,4,4,4,4,4,4,100,,,,,,,,,,,,,,,,,,,,,,,,,,,,
1648680338,1648680338,82,0,4261.794922,4220.512695,4293.974121,4235.641113,4253.589844,4285.384766,4284.230957,4280,4199.102539,4241.794922,4226.794922,4261.025879,4132.820313,4248.717773,3577,3,73,,,,0,4,4,4,4,4,4,4,4,4,4,4,4,4,4,100,,,,,,,,,,,,,,,,,,,,,,,,,,,,
1648680338,1648680338,83,0,4252.94873,4208.333496,4289.743652,4226.153809,4245.512695,4275.641113,4276.153809,4269.871582,4188.974121,4237.179688,4224.102539,4258.846191,4123.461426,4246.410156,3563,3,73,,,,0,4,4,4,4,4,4,4,4,4,4,4,4,4,4,100,,,,,,,,,,,,,,,,,,,,,,,,,,,,
1648680338,1648680338,84,0,4245.512695,4202.05127,4285.897461,4228.717773,4243.974121,4270.512695,4270.897461,4259.358887,4176.025879,4226.922852,4211.153809,4251.794922,4139.102539,4235.512695,3580,3,73,,,,0,4,4,4,4,4,4,4,4,4,4,4,4,4,4,100,,,,,,,,,,,,,,,,,21,0,0.603462,0.152222,-0.717346,0.313171,0.970718,-0.292485,-0.107912,-27.664606,-100.041199,-6.280613
1648680338,1648680338,85,0,4239.487305,4196.794922,4276.282227,4220.128418,4236.922852,4263.974121,4266.282227,4249.102539,4166.410156,4209.871582,4194.230957,4240.641113,4145.256348,4219.487305,3582,3,73,,,,0,4,4,4,4,4,4,4,4,4,4,4,4,4,4,100,,,,,,,,,,,,,,,,,,,,,,,,,,,,
1648680338,1648680338,86,0,4238.333496,4198.846191,4274.230957,4207.692383,4233.717773,4263.077148,4270.256348,4251.282227,4167.307617,4210.256348,4196.922852,4242.179688,4133.205078,4219.743652,3577,3,73,,,,0,4,4,4,4,4,4,4,4,4,4,4,4,4,4,100,,,,,,,,,,,,,,,,,,,,,,,,,,,,
1648680338,1648680338,87,0,4239.615234,4201.410156,4276.666504,4205.641113,4235.256348,4265.769043,4274.871582,4256.025879,4170,4226.153809,4209.230957,4247.563965,4128.205078,4226.282227,3563,3,73,,,,0,4,4,4,4,4,4,4,4,4,4,4,4,4,4,100,,,,,,,,,,,,,,,,,,,,,,,,,,,,
1648680338,1648680338,88,0,4242.436035,4202.563965,4280,4216.282227,4238.974121,4271.410156,4278.333496,4256.025879,4170.769043,4234.358887,4209.615234,4250.897461,4143.077148,4228.205078,3580,3,73,,,,0,4,4,4,4,4,4,4,4,4,4,4,4,4,4,100,,,,,,,,,,,,,,,,,22,0,0.603638,0.151917,-0.717529,0.312561,0.977066,-0.307134,-0.092287,-27.814146,-99.742119,-8.374151
1648680338,1648680338,89,0,4235.897461,4194.358887,4274.871582,4213.717773,4237.179688,4270.384766,4277.563965,4250.897461,4165.384766,4229.358887,4193.333496,4245.128418,4152.05127,4219.615234,3582,3,73,,,,0,4,4,4,4,4,4,4,4,4,4,4,4,4,4,100,,,,,,,,,,,,,,,,,,,,,,,,,,,,
1648680338,1648680338,90,0,4226.922852,4190.769043,4263.974121,4200.128418,4230.512695,4266.282227,4275.512695,4245.128418,4160.512695,4223.461426,4181.282227,4233.974121,4146.153809,4207.05127,3577,3,73,,,,0,4,4,4,4,4,4,4,4,4,4,4,4,4,4,100,,,,,,,,,,,,,,,,,,,,,,,,,,,,
1648680338,1648680338,91,0,4234.102539,4199.871582,4269.358887,4207.692383,4235.384766,4271.922852,4279.358887,4251.794922,4172.307617,4234.358887,4197.563965,4241.153809,4148.974121,4214.102539,3563,3,73,,,,0,4,4,4,4,4,4,4,4,4,4,4,4,4,4,100,,,,,,,,,,,,,,,,,,,,,,,,,,,,
1648680338,1648680338,92,0,4225.512695,4194.358887,4263.589844,4204.487305,4230.384766,4261.538574,4273.589844,4245.641113,4172.692383,4237.307617,4199.230957,4239.358887,4144.358887,4209.230957,3580,3,73,,,,0,4,4,4,4,4,4,4,4,4,4,4,4,4,4,100,,,,,,,,,,,,,,,,,23,0,0.604261,0.148987,-0.718018,0.311646,0.951675,-0.302251,-0.062013,-29.309528,-99.443047,-6.131075
1648680338,1648680338,93,0,4212.820313,4186.538574,4252.820313,4191.282227,4221.794922,4249.102539,4269.102539,4241.410156,4166.025879,4238.333496,4184.743652,4228.077148,4152.05127,4196.666504,3582,3,73,,,,0,4,4,4,4,4,4,4,4,4,4,4,4,4,4,100,1,75,4,4,3,4,4,3,4,3,3,4,4,4,4,4,,,,,,,,,,,,
1648680338,1648680338,94,0,4209.102539,4184.102539,4249.358887,4182.05127,4210.128418,4237.94873,4259.871582,4234.487305,4154.743652,4229.871582,4172.179688,4217.179688,4161.538574,4190.897461,3577,3,73,,,,0,4,4,4,4,4,4,4,4,4,4,4,4,4,4,100,,,,,,,,,,,,,,,,,,,,,,,,,,,,
1648680338,1648680338,95,0,4219.487305,4193.205078,4259.102539,4190.128418,4212.05127,4237.05127,4256.922852,4233.333496,4155.512695,4226.922852,4183.717773,4227.820313,4169.487305,4203.846191,3563,3,73,,,,0,4,4,4,4,4,4,4,4,4,4,4,4,4,4,100,,,,,,,,,,,,,,,,,,,,,,,,,,,,
1648680338,1648680338,96,0,4220.641113,4194.871582,4257.05127,4190.769043,4217.820313,4235.769043,4255,4230.769043,4151.922852,4223.205078,4188.846191,4231.922852,4171.794922,4203.333496,3580,3,73,,,,0,4,4,4,4,4,4,4,4,4,4,4,4,4,4,100,,,,,,,,,,,,,,,,,24,0,0.605238,0.145691,-0.718689,0.309753,0.965347,-0.254398,-0.053223,-29.608606,-99.29351,-4.486153
1648680338,1648680338,97,0,4225.897461,4201.153809,4263.205078,4198.461426,4228.589844,4243.461426,4261.922852,4241.410156,4157.94873,4230,4190.128418,4232.563965,4180.256348,4199.615234,3582,3,73,,,,0,4,4,4,4,4,4,4,4,4,4,4,4,4,4,100,,,,,,,,,,,,,,,,,,,,,,,,,,,,
1648680338,1648680338,98,0,4214.871582,4197.436035,4260.256348,4194.743652,4213.589844,4232.94873,4253.205078,4227.307617,4146.538574,4222.94873,4178.333496,4218.589844,4173.205078,4186.922852,3577,3,73,,,,0,4,4,4,4,4,4,4,4,4,4,4,4,4,4,100,,,,,,,,,,,,,,,,,,,,,,,,,,,,
1648680338,1648680338,99,0,4214.743652,4200.769043,4260.512695,4195.128418,4212.436035,4231.538574,4257.820313,4216.538574,4138.717773,4221.538574,4179.743652,4221.794922,4188.333496,4194.358887,3563,3,73,,,,0,4,4,4,4,4,4,4,4,4,4,4,4,4,4,100,,,,,,,,,,,,,,,,,,,,,,,,,,,,
1648680338,1648680338,100,0,4220.769043,4195.256348,4263.333496,4196.153809,4220.512695,4233.461426,4265.384766,4224.871582,4143.077148,4219.358887,4183.589844,4232.692383,4207.05127,4207.179688,3580,3,73,,,,0,4,4,4,4,4,4,4,4,4,4,4,4,4,4,100,,,,,,,,,,,,,,,,,25,0,0.606017,0.143738,-0.719238,0.307861,0.98146,-0.238285,-0.05713,-29.907682,-98.844894,-7.476921
1648680338,1648680338,101,0,4221.025879,4189.230957,4267.94873,4196.153809,4217.307617,4231.025879,4260,4220.128418,4142.820313,4213.846191,4180.128418,4231.025879,4202.307617,4203.077148,3582,3,73,,,,0,4,4,4,4,4,4,4,4,4,4,4,4,4,4,100,,,,,,,,,,,,,,,,,,,,,,,,,,,,
1648680338,1648680338,102,0,4207.692383,4189.102539,4257.436035,4187.179688,4197.563965,4212.820313,4240.641113,4185,4114.743652,4195.512695,4166.025879,4210.769043,4184.230957,4179.615234,3577,3,73,,,,0,4,4,4,4,4,4,4,4,4,4,4,4,4,4,100,,,,,,,,,,,,,,,,,,,,,,,,,,,,
1648680338,1648680338,103,0,4202.05127,4191.922852,4247.692383,4182.307617,4190.641113,4200.769043,4237.05127,4172.179688,4100.897461,4184.615234,4162.05127,4205.769043,4181.538574,4173.846191,3563,3,73,,,,0,4,4,4,4,4,4,4,4,4,4,4,4,4,4,100,,,,,,,,,,,,,,,,,,,,,,,,,,,,
1648680338,1648680338,104,0,4202.05127,4185.897461,4248.589844,4183.461426,4193.846191,4204.871582,4243.205078,4187.307617,4117.307617,4192.94873,4165.128418,4213.205078,4198.077148,4184.102539,3580,3,73,,,,0,4,4,4,4,4,4,4,4,4,4,4,4,4,4,100,,,,,,,,,,,,,,,,,26,0,0.605864,0.143982,-0.719788,0.306763,0.995132,-0.217288,-0.080568,-29.309528,-100.190735,-7.327382
1648680338,1648680338,105,0,4205,4185.128418,4255.897461,4189.230957,4197.94873,4211.025879,4244.358887,4190.641113,4122.179688,4201.794922,4166.794922,4215.384766,4223.077148,4187.436035,3582,3,73,,,,0,4,4,4,4,4,4,4,4,4,4,4,4,4,4,100,,,,,,,,,,,,,,,,,,,,,,,,,,,,
1648680338,1648680338,106,0,4213.461426,4196.922852,4261.922852,4196.282227,4200.384766,4204.487305,4239.358887,4186.794922,4114.358887,4199.743652,4172.179688,4218.589844,4235.897461,4187.94873,3577,3,73,,,,0,4,4,4,4,4,4,4,4,4,4,4,4,4,4,100,,,,,,,,,,,,,,,,,,,,,,,,,,,,
1648680338,1648680338,107,0,4212.692383,4201.666504,4258.077148,4192.436035,4195.641113,4194.230957,4232.820313,4186.282227,4116.282227,4192.179688,4171.538574,4216.282227,4228.974121,4186.538574,3563,3,73,,,,0,4,4,4,4,4,4,4,4,4,4,4,4,4,4,100,,,,,,,,,,,,,,,,,,,,,,,,,,,,
1648680338,1648680338,108,0,4216.922852,4202.179688,4265,4195.897461,4205.384766,4205.641113,4240.128418,4191.538574,4131.794922,4205,4179.487305,4220.512695,4236.538574,4191.410156,3580,3,73,,,,0,4,4,4,4,4,4,4,4,4,4,4,4,4,4,100,,,,,,,,,,,,,,,,,27,0,0.605025,0.14679,-0.719849,0.306946,0.986831,-0.215335,-0.09424,-29.15999,-99.29351,-7.476921
1648680338,1648680338,109,0,4209.871582,4189.358887,4259.102539,4190.769043,4202.94873,4202.820313,4239.102539,4183.461426,4125.256348,4203.974121,4178.974121,4212.692383,4238.717773,4183.974121,3582,3,73,,,,0,4,4,4,4,4,4,4,4,4,4,4,4,4,4,100,,,,,,,,,,,,,,,,,,,,,,,,,,,,
1648680338,1648680338,110,0,4201.538574,4183.333496,4253.846191,4188.461426,4193.717773,4196.794922,4241.025879,4189.615234,4128.846191,4204.487305,4175,4208.717773,4248.205078,4179.615234,3577,3,73,,,,0,4,4,4,4,4,4,4,4,4,4,4,4,4,4,100,,,,,,,,,,,,,,,,,,,,,,,,,,,,
1648680338,1648680338,111,0,4192.692383,4185.384766,4247.307617,4181.666504,4187.820313,4192.307617,4237.563965,4182.563965,4126.282227,4203.846191,4164.743652,4202.563965,4244.487305,4169.743652,3563,3,73,,,,0,4,4,4,4,4,4,4,4,4,4,4,4,4,4,100,,,,,,,,,,,,,,,,,,,,,,,,,,,,
1648680338,1648680338,112,0,4195.769043,4190.512695,4249.102539,4183.589844,4199.615234,4192.692383,4231.282227,4160.897461,4111.410156,4200.512695,4170.897461,4203.717773,4233.205078,4170.769043,3580,3,73,,,,0,4,4,4,4,4,4,4,4,4,4,4,4,4,4,100,,,,,,,,,,,,,,,,,28,0,0.604399,0.150024,-0.719238,0.308044,0.962905,-0.268559,-0.104494,-29.010452,-99.143967,-5.084306
1648680338,1648680338,113,0,4183.589844,4180.897461,4236.538574,4174.871582,4188.205078,4179.230957,4217.692383,4146.153809,4097.05127,4185,4158.717773,4185.769043,4237.692383,4159.358887,3582,3,73,,,,0,4,4,4,4,4,4,4,4,4,4,4,4,4,4,100,,,,,,,,,,,,,,,,,,,,,,,,,,,,
1648680338,1648680338,114,0,4180.512695,4183.974121,4234.102539,4174.871582,4180.384766,4180.512695,4227.94873,4168.461426,4117.307617,4188.974121,4150.769043,4178.589844,4266.410156,4152.94873,3577,3,73,,,,0,4,4,4,4,4,4,4,4,4,4,4,4,4,4,100,,,,,,,,,,,,,,,,,,,,,,,,,,,,
1648680338,1648680338,115,0,4182.820313,4182.436035,4236.410156,4175.256348,4189.358887,4182.563965,4234.102539,4178.461426,4129.230957,4195.384766,4159.487305,4185.256348,4266.538574,4156.922852,3563,3,73,,,,0,4,4,4,4,4,4,4,4,4,4,4,4,4,4,100,,,,,,,,,,,,,,,,,,,,,,,,,,,,
1648680338,1648680338,116,0,4195.256348,4188.974121,4247.94873,4184.358887,4208.974121,4191.410156,4234.230957,4173.846191,4132.563965,4205.769043,4176.410156,4198.717773,4275.512695,4172.94873,3580,3,73,,,,0,4,4,4,4,4,4,4,4,4,4,4,4,4,4,100,,,,,,,,,,,,,,,,,29,0,0.604476,0.151001,-0.718628,0.308838,0.969741,-0.272953,-0.095705,-28.711376,-100.639351,-7.476921
1648680338,1648680338,117,0,4198.589844,4198.974121,4250.512695,4187.05127,4203.333496,4190.256348,4229.102539,4165.256348,4130.897461,4205.128418,4170.512695,4196.794922,4298.974121,4172.05127,3582,3,73,,,,0,4,4,4,4,4,4,4,4,4,4,4,4,4,4,100,,,,,,,,,,,,,,,,,,,,,,,,,,,,
1648680338,1648680338,118,0,4192.179688,4197.692383,4244.230957,4183.589844,4190.769043,4178.077148,4230.897461,4156.410156,4124.102539,4192.307617,4158.333496,4188.205078,4306.922852,4163.589844,3577,3,73,,,,0,4,4,4,4,4,4,4,4,4,4,4,4,4,4,100,,,,,,,,,,,,,,,,,,,,,,,,,,,,
1648680338,1648680338,119,0,4186.922852,4187.05127,4240.897461,4179.871582,4192.179688,4173.077148,4235,4155.641113,4125.384766,4190.384766,4164.871582,4188.974121,4301.922852,4167.692383,3563,3,73,,,,0,4,4,4,4,4,4,4,4,4,4,4,4,4,4,100,,,,,,,,,,,,,,,,,,,,,,,,,,,,
1648680338,1648680338,120,0,4189.358887,4190.256348,4242.307617,4177.05127,4196.794922,4181.282227,4239.487305,4165.641113,4138.333496,4200.512695,4181.922852,4195.641113,4306.153809,4174.743652,3580,3,73,,,,0,4,4,4,4,4,4,4,4,4,4,4,4,4,4,100,,,,,,,,,,,,,,,,,30,0,0.604916,0.151672,-0.71759,0.310059,0.956558,-0.280278,-0.072267,-30.356298,-99.592583,-6.280613
1648680338,1648680338,121,0,4187.94873,4191.922852,4238.077148,4172.820313,4190.384766,4177.307617,4240,4168.333496,4142.436035,4204.743652,4182.436035,4190.641113,4318.589844,4169.871582,3582,3,73,,,,0,4,4,4,4,4,4,4,4,4,4,4,4,4,4,100,,,,,,,,,,,,,,,,,,,,,,,,,,,,
1648680338,1648680338,122,0,4183.205078,4187.05127,4230.897461,4169.615234,4180.512695,4163.461426,4234.487305,4156.794922,4133.846191,4203.205078,4171.282227,4180.256348,4326.922852,4159.615234,3577,3,73,,,,0,4,4,4,4,4,4,4,4,4,4,4,4,4,4,100,,,,,,,,,,,,,,,,,,,,,,,,,,,,
1648680338,1648680338,123,0,4184.871582,4189.743652,4233.846191,4170.256348,4178.589844,4166.025879,4232.692383,4156.153809,4137.820313,4209.358887,4182.436035,4187.05127,4335.384766,4162.563965,3563,3,73,,,,0,4,4,4,4,4,4,4,4,4,4,4,4,4,4,100,,,,,,,,,,,,,,,,,,,,,,,,,,,,
1648680338,1648680338,124,0,4173.205078,4184.230957,4225.769043,4158.333496,4172.436035,4162.436035,4225.512695,4150.769043,4136.922852,4202.820313,4185.897461,4185.128418,4346.410156,4160,3580,3,73,,,,0,4,4,4,4,4,4,4,4,4,4,4,4,4,4,100,,,,,,,,,,,,,,,,,31,0,0.605916,0.150757,-0.716675,0.310669,0.967788,-0.299321,-0.044923,-29.907682,-100.041199,-7.476921
1648680338,1648680338,125,0,4178.461426,4187.563965,4227.563965,4164.615234,4186.410156,4165.128418,4226.282227,4148.589844,4141.794922,4205.641113,4182.692383,4187.05127,4373.461426,4167.436035,3582,3,73,,,,0,4,4,4,4,4,4,4,4,4,4,4,4,4,4,100,,,,,,,,,,,,,,,,,,,,,,,,,,,,
1648680338,1648680338,126,0,4191.794922,4199.487305,4235.128418,4180,4197.563965,4167.563965,4226.282227,4148.077148,4145.769043,4209.230957,4192.307617,4194.358887,4372.179688,4174.358887,3577,3,73,,,,0,4,4,4,4,4,4,4,4,4,4,4,4,4,4,100,,,,,,,,,,,,,,,,,,,,,,,,,,,,
1648680338,1648680338,127,0,4195.128418,4205.769043,4240.128418,4185.641113,4194.615234,4169.230957,4232.05127,4155.512695,4150.384766,4211.922852,4212.307617,4202.179688,4361.922852,4178.846191,55,3,73,,,,0,4,4,4,4,4,4,4,4,4,4,4,4,4,4,100,,,,,,,,,,,,,,,,,,,,,,,,,,,,
1648680338,1648680338,0,0,4181.666504,4196.538574,4227.820313,4171.153809,4180.897461,4161.282227,4226.282227,4145,4140.641113,4204.615234,4199.487305,4187.820313,4374.230957,4170.128418,3569,3,73,,,,0,4,4,4,4,4,4,4,4,4,4,4,4,4,4,100,,,,,,,,,,,,,,,,,0,0,0.606946,0.147705,-0.716492,0.310547,0.991714,-0.282231,-0.032715,-29.907682,-99.592583,-5.981536
1648680338,1648680338,1,0,4190,4205.897461,4233.589844,4173.717773,4186.666504,4163.333496,4220.641113,4148.205078,4149.230957,4214.743652,4195,4186.025879,4410.769043,4177.436035,3561,3,73,,,,0,4,4,4,4,4,4,4,4,4,4,4,4,4,4,100,,,,,,,,,,,,,,,,,,,,,,,,,,,,
1648680338,1648680338,2,0,4191.538574,4210.641113,4235.512695,4172.179688,4186.410156,4157.820313,4214.743652,4155.769043,4160.384766,4218.333496,4198.589844,4188.077148,4417.179688,4177.94873,3573,3,73,,,,0,4,4,4,4,4,4,4,4,4,4,4,4,4,4,100,,,,,,,,,,,,,,,,,,,,,,,,,,,,
1648680338,1648680338,3,0,4190,4207.307617,4234.743652,4170.384766,4186.666504,4166.794922,4228.461426,4163.333496,4171.282227,4218.846191,4207.692383,4197.05127,4408.333496,4176.794922,3055,3,73,,,,0,4,4,4,4,4,4,4,4,4,4,4,4,4,4,100,,,,,,,,,,,,,,,,,,,,,,,,,,,,
1648680338,1648680338,4,0,4192.307617,4199.230957,4237.307617,4168.717773,4187.179688,4173.589844,4229.102539,4159.743652,4172.94873,4220.256348,4216.282227,4200.897461,4414.487305,4178.974121,3613,3,73,,,,0,4,4,4,4,4,4,4,4,4,4,4,4,4,4,100,,,,,,,,,,,,,,,,,1,0,0.60725,0.144836,-0.717163,0.309753,1.001968,-0.245121,-0.058106,-29.010452,-98.695351,-6.57969
1648680338,1648680338,5,0,4204.615234,4213.974121,4250,4179.102539,4199.743652,4174.102539,4225.256348,4157.436035,4173.333496,4230.897461,4225.512695,4207.179688,4435.769043,4193.717773,3598,3,73,,,,0,4,4,4,4,4,4,4,4,4,4,4,4,4,4,100,,,,,,,,,,,,,,,,,,,,,,,,,,,,
1648680338,1648680338,6,0,4203.077148,4222.179688,4251.025879,4186.538574,4201.025879,4170.256348,4229.615234,4152.307617,4170,4230.897461,4218.461426,4204.615234,4430.769043,4193.717773,3354,3,73,,,,0,4,4,4,4,4,4,4,4,4,4,4,4,4,4,100,,,,,,,,,,,,,,,,,,,,,,,,,,,,
1648680338,1648680338,7,0,4193.846191,4210.512695,4244.487305,4185.256348,4193.077148,4170.897461,4234.230957,4147.307617,4169.615234,4220.641113,4214.871582,4197.307617,4425.256348,4181.794922,3571,3,73,,,,0,4,4,4,4,4,4,4,4,4,4,4,4,4,4,100,,,,,,,,,,,,,,,,,,,,,,,,,,,,
1648680338,1648680338,8,0,4190.897461,4198.974121,4241.666504,4179.743652,4190.897461,4167.94873,4225.256348,4149.615234,4169.487305,4215.769043,4220.128418,4195.512695,4440,4182.05127,3551,3,73,,,,0,4,4,4,4,4,4,4,4,4,4,4,4,4,4,100,,,,,,,,,,,,,,,,,2,0,0.606688,0.144043,-0.71814,0.30896,0.991714,-0.233402,-0.084962,-29.907682,-98.097198,-6.729228
1648680338,1648680338,9,0,4194.487305,4207.307617,4242.563965,4180.128418,4191.410156,4163.717773,4221.282227,4156.794922,4168.846191,4218.589844,4217.692383,4193.589844,4443.205078,4184.230957,3576,3,73,,,,0,4,4,4,4,4,4,4,4,4,4,4,4,4,4,100,,,,,,,,,,,,,,,,,,,,,,,,,,,,
1648680338,1648680338,10,0,4198.205078,4215.256348,4244.358887,4186.282227,4190,4162.179688,4225.384766,4158.461426,4172.820313,4224.871582,4218.205078,4190.641113,4440,4182.692383,3551,3,73,,,,0,4,4,4,4,4,4,4,4,4,4,4,4,4,4,100,,,,,,,,,,,,,,,,,,,,,,,,,,,,
1648680338,1648680338,11,0,4185.384766,4200.384766,4231.153809,4177.94873,4177.436035,4149.615234,4215.641113,4138.846191,4164.615234,4210.641113,4211.922852,4180.512695,4448.589844,4178.077148,3581,3,73,,,,0,4,4,4,4,4,4,4,4,4,4,4,4,4,4,100,,,,,,,,,,,,,,,,,,,,,,,,,,,,
1648680338,1648680338,12,0,4185.769043,4197.563965,4229.358887,4179.871582,4178.077148,4149.230957,4216.025879,4137.05127,4169.615234,4208.461426,4214.871582,4185.256348,4470.384766,4183.974121,3595,3,73,,,,0,4,4,4,4,4,4,4,4,4,4,4,4,4,4,100,,,,,,,,,,,,,,,,,3,0,0.605308,0.145752,-0.719299,0.308167,0.989761,-0.252934,-0.112795,-28.711376,-99.29351,-5.981536
1648680338,1648680338,13,0,4193.077148,4202.94873,4235,4182.94873,4182.820313,4152.307617,4218.846191,4145.512695,4176.282227,4220.384766,4224.743652,4187.307617,4467.692383,4183.205078,3595,3,73,,,,0,4,4,4,4,4,4,4,4,4,4,4,4,4,4,100,,,,,,,,,,,,,,,,,,,,,,,,,,,,
1648680338,1648680338,14,0,4198.974121,4211.282227,4241.282227,4186.922852,4189.871582,4156.666504,4221.794922,4149.358887,4182.563965,4231.153809,4238.846191,4189.743652,4464.871582,4189.102539,3551,3,73,,,,0,4,4,4,4,4,4,4,4,4,4,4,4,4,4,100,,,,,,,,,,,,,,,,,,,,,,,,,,,,
1648680338,1648680338,15,0,4187.436035,4210.256348,4228.717773,4177.307617,4177.307617,4147.692383,4216.666504,4139.230957,4176.025879,4217.692383,4224.743652,4180.384766,4468.333496,4181.282227,3581,3,73,,,,0,4,4,4,4,4,4,4,4,4,4,4,4,4,4,100,,,,,,,,,,,,,,,,,,,,,,,,,,,,
1648680338,1648680338,16,0,4187.563965,4213.205078,4226.538574,4180.128418,4174.487305,4148.974121,4220.769043,4145.769043,4178.461426,4216.666504,4213.717773,4177.94873,4488.333496,4176.922852,0,3,73,,,,0,4,4,4,4,4,4,4,4,4,4,4,4,4,4,100,,,,,,,,,,,,,,,,,4,0,0.603759,0.147644,-0.719849,0.309021,0.952163,-0.277836,-0.092775,-30.20676,-99.443047,-5.084306
1648680338,1648680338,17,0,4186.282227,4206.666504,4220.769043,4179.871582,4174.358887,4142.820313,4211.282227,4140.897461,4172.563965,4214.230957,4208.717773,4168.846191,4483.077148,4174.102539,0,3,73,,,,0,4,4,4,4,4,4,4,4,4,4,4,4,4,4,100,,,,,,,,,,,,,,,,,,,,,,,,,,,,
1648680338,1648680338,18,0,4183.461426,4206.922852,4215.641113,4178.589844,4177.820313,4137.692383,4203.717773,4129.358887,4173.077148,4212.179688,4221.153809,4167.820313,4466.922852,4173.974121,0,3,73,,,,0,4,4,4,4,4,4,4,4,4,4,4,4,4,4,100,,,,,,,,,,,,,,,,,,,,,,,,,,,,
1648680338,1648680338,19,0,4168.846191,4200.641113,4204.230957,4167.05127,4172.436035,4129.487305,4200.769043,4121.282227,4171.538574,4205.641113,4222.436035,4162.179688,4462.05127,4163.077148,0,3,73,,,,0,4,4,4,4,4,4,4,4,4,4,4,4,4,4,100,,,,,,,,,,,,,,,,,,,,,,,,,,,,
1648680338,1648680338,20,0,4163.717773,4188.077148,4201.666504,4160.897461,4165.769043,4126.025879,4203.846191,4127.307617,4169.871582,4204.871582,4209.487305,4154.487305,4480.384766,4161.282227,0,3,73,,,,0,4,4,4,4,4,4,4,4,4,4,4,4,4,4,100,,,,,,,,,,,,,,,,,5,0,0.603402,0.148071,-0.719482,0.310364,0.974624,-0.288579,-0.076661,-29.010452,-98.396278,-6.57969
1648680338,1648680338,21,0,4157.05127,4174.230957,4189.743652,4147.436035,4148.717773,4110.384766,4188.333496,4119.230957,4162.94873,4194.102539,4192.05127,4141.153809,4480.641113,4150.897461,0,3,73,,,,0,4,4,4,4,4,4,4,4,4,4,4,4,4,4,100,,,,,,,,,,,,,,,,,,,,,,,,,,,,
1648680338,1648680338,22,0,4149.871582,4183.717773,4177.436035,4139.871582,4142.94873,4102.563965,4177.820313,4109.871582,4164.102539,4187.307617,4191.538574,4133.846191,4468.589844,4139.230957,0,3,73,,,,0,4,4,4,4,4,4,4,4,4,4,4,4,4,4,100,,,,,,,,,,,,,,,,,,,,,,,,,,,,
1648680338,1648680339,23,0,4151.922852,4203.461426,4185.769043,4151.666504,4153.974121,4112.179688,4188.205078,4117.692383,4173.205078,4198.461426,4200.512695,4139.230957,4476.666504,4148.461426,0,3,73,,,,0,4,4,4,4,4,4,4,4,4,4,4,4,4,4,100,,,,,,,,,,,,,,,,,,,,,,,,,,,,
1648680338,1648680339,24,0,4162.692383,4204.615234,4201.410156,4162.563965,4160.384766,4119.871582,4194.743652,4126.025879,4176.025879,4206.922852,4215.897461,4152.563965,4488.846191,4165,0,3,73,,,,0,4,4,4,4,4,4,4,4,4,4,4,4,4,4,100,,,,,,,,,,,,,,,,,6,0,0.603606,0.147827,-0.719177,0.310791,0.974624,-0.269535,-0.05713,-29.309528,-99.443047,-6.878767
1648680338,1648680339,25,0,4163.974121,4190.641113,4197.307617,4157.179688,4154.102539,4117.563965,4185.769043,4122.307617,4173.589844,4202.307617,4229.743652,4156.153809,4485.897461,4161.922852,0,3,73,,,,0,4,4,4,4,4,4,4,4,4,4,4,4,4,4,100,,,,,,,,,,,,,,,,,,,,,,,,,,,,
1648680338,1648680339,26,0,4159.358887,4196.025879,4186.153809,4155.512695,4154.230957,4116.538574,4185.897461,4119.871582,4178.077148,4195.769043,4213.974121,4143.589844,4488.333496,4151.410156,0,3,73,,,,0,4,4,4,4,4,4,4,4,4,4,4,4,4,4,100,,,,,,,,,,,,,,,,,,,,,,,,,,,,
1648680339,1648680339,27,0,4166.666504,4211.538574,4197.179688,4173.205078,4168.717773,4125.512695,4198.974121,4131.282227,4193.589844,4205.256348,4201.153809,4144.358887,4504.358887,4160.769043,0,3,73,,,,0,4,4,4,4,4,4,4,4,4,4,4,4,4,4,100,,,,,,,,,,,,,,,,,,,,,,,,,,,,
