title:Decision 2, start timestamp:1648680757.265110, stop timestamp:1648680778.542594, headset type:EPOCPLUS, headset serial:4A2C0467, headset firmware:633, channels:67, sampling rate:eeg_128;mot_32, samples:2730      , version:2.1, 
Timestamp,OriginalTimestamp,EEG.Counter,EEG.Interpolated,EEG.AF3,EEG.F7,EEG.F3,EEG.FC5,EEG.T7,EEG.P7,EEG.O1,EEG.O2,EEG.P8,EEG.T8,EEG.FC6,EEG.F4,EEG.F8,EEG.AF4,EEG.RawCq,EEG.Battery,EEG.BatteryPercent,MarkerIndex,MarkerType,MarkerValueInt,EEG.MarkerHardware,CQ.AF3,CQ.F7,CQ.F3,CQ.FC5,CQ.T7,CQ.P7,CQ.O1,CQ.O2,CQ.P8,CQ.T8,CQ.FC6,CQ.F4,CQ.F8,CQ.AF4,CQ.Overall,EQ.SampleRateQuality,EQ.OVERALL,EQ.AF3,EQ.F7,EQ.F3,EQ.FC5,EQ.T7,EQ.P7,EQ.O1,EQ.O2,EQ.P8,EQ.T8,EQ.FC6,EQ.F4,EQ.F8,EQ.AF4,MOT.CounterMems,MOT.InterpolatedMems,MOT.Q0,MOT.Q1,MOT.Q2,MOT.Q3,MOT.AccX,MOT.AccY,MOT.AccZ,MOT.MagX,MOT.MagY,MOT.MagZ
1648680757.265110,1648680757.308385,67.000000,0.000000,4323.717773,4329.871582,4285.128418,4320.512695,4262.051270,4238.717773,4235.256348,4210.641113,4205.769043,4173.333496,4290.256348,4252.948730,4213.974121,4298.077148,3008.000000,3.000000,73.000000,,,,0.000000,4.000000,4.000000,4.000000,4.000000,4.000000,4.000000,4.000000,4.000000,4.000000,4.000000,4.000000,4.000000,4.000000,4.000000,100.000000,,,,,,,,,,,,,,,,,,,,,,,,,,,,
1648680757.272906,1648680757.316092,68.000000,0.000000,4324.743652,4325.384766,4288.461426,4324.615234,4272.692383,4246.025879,4242.820313,4216.794922,4202.948730,4179.871582,4263.846191,4246.666504,4252.436035,4293.589844,3606.000000,3.000000,73.000000,,,,0.000000,4.000000,4.000000,4.000000,4.000000,4.000000,4.000000,4.000000,4.000000,4.000000,4.000000,4.000000,4.000000,4.000000,4.000000,100.000000,,,,,,,,,,,,,,,,,17.000000,0.000000,0.700710,-0.180542,-0.676819,-0.135376,0.990250,-0.004883,0.025879,-23.477531,-100.938431,9.420920
1648680757.280703,1648680757.323898,69.000000,0.000000,4315.897461,4313.333496,4281.282227,4314.102539,4269.358887,4244.615234,4238.333496,4206.153809,4196.410156,4171.922852,4240.128418,4237.051270,4240.769043,4286.794922,3586.000000,3.000000,73.000000,,,,0.000000,4.000000,4.000000,4.000000,4.000000,4.000000,4.000000,4.000000,4.000000,4.000000,4.000000,4.000000,4.000000,4.000000,4.000000,100.000000,,,,,,,,,,,,,,,,,,,,,,,,,,,,
1648680757.288500,1648680757.331604,70.000000,0.000000,4285.641113,4298.589844,4259.743652,4292.820313,4260.256348,4238.717773,4235.256348,4196.153809,4189.102539,4152.820313,4221.025879,4217.051270,4180.128418,4262.307617,3383.000000,3.000000,73.000000,,,,0.000000,4.000000,4.000000,4.000000,4.000000,4.000000,4.000000,4.000000,4.000000,4.000000,4.000000,4.000000,4.000000,4.000000,4.000000,100.000000,,,,,,,,,,,,,,,,,,,,,,,,,,,,
1648680757.296297,1648680757.339411,71.000000,0.000000,4276.922852,4310.641113,4253.077148,4296.025879,4256.153809,4237.179688,4240.641113,4199.102539,4186.922852,4143.461426,4222.563965,4206.282227,4118.717773,4244.230957,3566.000000,3.000000,73.000000,,,,0.000000,4.000000,4.000000,4.000000,4.000000,4.000000,4.000000,4.000000,4.000000,4.000000,4.000000,4.000000,4.000000,4.000000,4.000000,100.000000,,,,,,,,,,,,,,,,,,,,,,,,,,,,
1648680757.304094,1648680757.347117,72.000000,0.000000,4292.563965,4321.153809,4261.153809,4311.794922,4250.128418,4230.769043,4237.051270,4199.358887,4180.769043,4138.077148,4222.948730,4207.948730,4104.358887,4244.615234,3545.000000,3.000000,73.000000,,,,0.000000,4.000000,4.000000,4.000000,4.000000,4.000000,4.000000,4.000000,4.000000,4.000000,4.000000,4.000000,4.000000,4.000000,4.000000,100.000000,,,,,,,,,,,,,,,,,18.000000,0.000000,0.705034,-0.165710,-0.678650,-0.122070,1.016617,-0.060060,0.033204,-23.627069,-100.041199,8.224613
1648680757.311890,1648680757.354923,73.000000,0.000000,4298.461426,4317.436035,4271.025879,4311.666504,4267.820313,4244.871582,4250.256348,4218.333496,4196.410156,4150.897461,4219.487305,4218.974121,4141.666504,4252.051270,3587.000000,3.000000,73.000000,,,,0.000000,4.000000,4.000000,4.000000,4.000000,4.000000,4.000000,4.000000,4.000000,4.000000,4.000000,4.000000,4.000000,4.000000,4.000000,100.000000,,,,,,,,,,,,,,,,,,,,,,,,,,,,
1648680757.319687,1648680757.362630,74.000000,0.000000,4320.769043,4345.641113,4304.871582,4344.615234,4318.333496,4297.307617,4294.743652,4269.615234,4250.641113,4201.282227,4238.846191,4248.333496,4211.538574,4280.384766,3616.000000,3.000000,73.000000,,,,0.000000,4.000000,4.000000,4.000000,4.000000,4.000000,4.000000,4.000000,4.000000,4.000000,4.000000,4.000000,4.000000,4.000000,4.000000,100.000000,,,,,,,,,,,,,,,,,,,,,,,,,,,,
1648680757.327484,1648680757.370436,75.000000,0.000000,4346.666504,4370.384766,4328.333496,4385.000000,4334.230957,4311.538574,4304.743652,4277.436035,4263.846191,4212.051270,4256.282227,4261.025879,4198.205078,4296.666504,3582.000000,3.000000,73.000000,,,,0.000000,4.000000,4.000000,4.000000,4.000000,4.000000,4.000000,4.000000,4.000000,4.000000,4.000000,4.000000,4.000000,4.000000,4.000000,100.000000,,,,,,,,,,,,,,,,,,,,,,,,,,,,
1648680757.335281,1648680757.378142,76.000000,0.000000,4350.256348,4360.256348,4328.205078,4382.563965,4332.820313,4300.641113,4295.897461,4271.025879,4256.794922,4205.000000,4278.461426,4268.589844,4122.179688,4297.436035,3581.000000,3.000000,73.000000,,,,0.000000,4.000000,4.000000,4.000000,4.000000,4.000000,4.000000,4.000000,4.000000,4.000000,4.000000,4.000000,4.000000,4.000000,4.000000,100.000000,,,,,,,,,,,,,,,,,19.000000,0.000000,0.707041,-0.157959,-0.679688,-0.114746,1.017594,-0.091310,0.041505,-25.122454,-99.143967,8.374151
1648680757.343078,1648680757.385949,77.000000,0.000000,4321.282227,4327.692383,4306.282227,4348.717773,4328.461426,4297.563965,4288.974121,4269.230957,4249.358887,4209.615234,4260.256348,4250.512695,4105.769043,4273.205078,3589.000000,3.000000,73.000000,,,,0.000000,4.000000,4.000000,4.000000,4.000000,4.000000,4.000000,4.000000,4.000000,4.000000,4.000000,4.000000,4.000000,4.000000,4.000000,100.000000,,,,,,,,,,,,,,,,,,,,,,,,,,,,
1648680757.350875,1648680757.393755,78.000000,0.000000,4304.487305,4326.666504,4294.230957,4346.922852,4325.000000,4302.563965,4286.410156,4257.820313,4236.922852,4199.358887,4217.563965,4228.846191,4158.846191,4258.974121,3616.000000,3.000000,73.000000,,,,0.000000,4.000000,4.000000,4.000000,4.000000,4.000000,4.000000,4.000000,4.000000,4.000000,4.000000,4.000000,4.000000,4.000000,4.000000,100.000000,,,,,,,,,,,,,,,,,,,,,,,,,,,,
1648680757.358671,1648680757.401561,79.000000,0.000000,4287.563965,4331.410156,4277.948730,4340.128418,4309.487305,4285.641113,4274.487305,4233.717773,4213.846191,4153.077148,4188.333496,4212.692383,4146.410156,4244.102539,3582.000000,3.000000,73.000000,,,,0.000000,4.000000,4.000000,4.000000,4.000000,4.000000,4.000000,4.000000,4.000000,4.000000,4.000000,4.000000,4.000000,4.000000,4.000000,100.000000,,,,,,,,,,,,,,,,,,,,,,,,,,,,
1648680757.366468,1648680757.409168,80.000000,0.000000,4285.512695,4333.846191,4281.153809,4336.538574,4310.769043,4281.922852,4276.538574,4244.871582,4222.820313,4150.128418,4216.025879,4218.461426,4067.564209,4238.333496,3581.000000,3.000000,73.000000,,,,0.000000,4.000000,4.000000,4.000000,4.000000,4.000000,4.000000,4.000000,4.000000,4.000000,4.000000,4.000000,4.000000,4.000000,4.000000,100.000000,,,,,,,,,,,,,,,,,20.000000,0.000000,0.710628,-0.142883,-0.681641,-0.099792,0.997574,-0.112306,0.061036,-22.879377,-97.798126,7.028306
1648680757.374265,1648680757.416974,81.000000,0.000000,4281.666504,4312.692383,4279.487305,4330.769043,4307.948730,4281.794922,4272.563965,4254.358887,4231.538574,4172.563965,4222.820313,4211.538574,4049.871826,4230.641113,3589.000000,3.000000,73.000000,,,,0.000000,4.000000,4.000000,4.000000,4.000000,4.000000,4.000000,4.000000,4.000000,4.000000,4.000000,4.000000,4.000000,4.000000,4.000000,100.000000,,,,,,,,,,,,,,,,,,,,,,,,,,,,
1648680757.382062,1648680757.424681,82.000000,0.000000,4278.589844,4298.717773,4274.102539,4318.589844,4309.230957,4285.769043,4275.641113,4251.922852,4233.461426,4180.641113,4198.077148,4204.743652,4117.948730,4230.512695,3616.000000,3.000000,73.000000,,,,0.000000,4.000000,4.000000,4.000000,4.000000,4.000000,4.000000,4.000000,4.000000,4.000000,4.000000,4.000000,4.000000,4.000000,4.000000,100.000000,,,,,,,,,,,,,,,,,,,,,,,,,,,,
1648680757.389859,1648680757.432487,83.000000,0.000000,4278.717773,4307.820313,4273.589844,4312.563965,4303.461426,4279.615234,4276.282227,4243.205078,4224.871582,4173.077148,4197.692383,4207.436035,4131.794922,4232.436035,3582.000000,3.000000,73.000000,,,,0.000000,4.000000,4.000000,4.000000,4.000000,4.000000,4.000000,4.000000,4.000000,4.000000,4.000000,4.000000,4.000000,4.000000,4.000000,100.000000,,,,,,,,,,,,,,,,,,,,,,,,,,,,
1648680757.397655,1648680757.440193,84.000000,0.000000,4289.358887,4317.692383,4282.307617,4331.922852,4304.487305,4281.153809,4280.897461,4249.102539,4225.000000,4182.692383,4218.077148,4216.666504,4115.641113,4238.974121,3581.000000,3.000000,73.000000,,,,0.000000,4.000000,4.000000,4.000000,4.000000,4.000000,4.000000,4.000000,4.000000,4.000000,4.000000,4.000000,4.000000,4.000000,4.000000,100.000000,,,,,,,,,,,,,,,,,21.000000,0.000000,0.713387,-0.129578,-0.683350,-0.085571,1.018570,-0.146975,0.039551,-23.327993,-98.097198,7.775998
1648680757.405452,1648680757.448000,85.000000,0.000000,4293.717773,4309.102539,4285.256348,4331.666504,4311.153809,4289.615234,4282.563965,4261.410156,4240.512695,4196.538574,4216.922852,4219.743652,4139.230957,4240.256348,3589.000000,3.000000,73.000000,,,,0.000000,4.000000,4.000000,4.000000,4.000000,4.000000,4.000000,4.000000,4.000000,4.000000,4.000000,4.000000,4.000000,4.000000,4.000000,100.000000,,,,,,,,,,,,,,,,,,,,,,,,,,,,
1648680757.413249,1648680757.455706,86.000000,0.000000,4288.205078,4306.922852,4281.666504,4313.077148,4306.025879,4288.589844,4281.025879,4255.384766,4240.769043,4191.025879,4206.153809,4216.410156,4153.333496,4234.487305,3616.000000,3.000000,73.000000,,,,0.000000,4.000000,4.000000,4.000000,4.000000,4.000000,4.000000,4.000000,4.000000,4.000000,4.000000,4.000000,4.000000,4.000000,4.000000,100.000000,,,,,,,,,,,,,,,,,,,,,,,,,,,,
1648680757.421046,1648680757.463512,87.000000,0.000000,4285.641113,4314.230957,4284.615234,4317.307617,4300.512695,4284.871582,4286.282227,4252.307617,4233.077148,4187.820313,4227.948730,4223.333496,4111.922852,4235.897461,3582.000000,3.000000,73.000000,,,,0.000000,4.000000,4.000000,4.000000,4.000000,4.000000,4.000000,4.000000,4.000000,4.000000,4.000000,4.000000,4.000000,4.000000,4.000000,100.000000,,,,,,,,,,,,,,,,,,,,,,,,,,,,
1648680757.428843,1648680757.471219,88.000000,0.000000,4284.871582,4307.563965,4282.307617,4319.871582,4302.948730,4290.000000,4296.666504,4269.358887,4240.769043,4195.512695,4241.025879,4229.102539,4091.281982,4242.563965,3581.000000,3.000000,73.000000,,,,0.000000,4.000000,4.000000,4.000000,4.000000,4.000000,4.000000,4.000000,4.000000,4.000000,4.000000,4.000000,4.000000,4.000000,4.000000,100.000000,,,,,,,,,,,,,,,,,22.000000,0.000000,0.715253,-0.118835,-0.684814,-0.072937,1.021988,-0.126955,0.038087,-22.131685,-98.097198,5.981536
1648680757.436639,1648680757.478925,89.000000,0.000000,4283.974121,4303.717773,4279.487305,4314.615234,4308.846191,4301.282227,4305.512695,4287.051270,4258.077148,4202.563965,4220.897461,4223.974121,4140.128418,4244.487305,3589.000000,3.000000,73.000000,,,,0.000000,4.000000,4.000000,4.000000,4.000000,4.000000,4.000000,4.000000,4.000000,4.000000,4.000000,4.000000,4.000000,4.000000,4.000000,100.000000,,,,,,,,,,,,,,,,,,,,,,,,,,,,
1648680757.444436,1648680757.486831,90.000000,0.000000,4272.179688,4301.794922,4273.974121,4312.051270,4305.897461,4298.077148,4302.820313,4282.179688,4252.307617,4198.589844,4204.743652,4211.025879,4173.333496,4228.589844,3616.000000,3.000000,73.000000,,,,0.000000,4.000000,4.000000,4.000000,4.000000,4.000000,4.000000,4.000000,4.000000,4.000000,4.000000,4.000000,4.000000,4.000000,4.000000,100.000000,,,,,,,,,,,,,,,,,,,,,,,,,,,,
1648680757.452233,1648680757.494638,91.000000,0.000000,4275.128418,4302.948730,4281.538574,4321.282227,4313.461426,4302.820313,4307.692383,4287.179688,4256.666504,4212.948730,4233.461426,4220.128418,4150.256348,4228.461426,3582.000000,3.000000,73.000000,,,,0.000000,4.000000,4.000000,4.000000,4.000000,4.000000,4.000000,4.000000,4.000000,4.000000,4.000000,4.000000,4.000000,4.000000,4.000000,100.000000,,,,,,,,,,,,,,,,,,,,,,,,,,,,
1648680757.460030,1648680757.502444,92.000000,0.000000,4275.512695,4295.897461,4277.948730,4312.692383,4305.512695,4295.897461,4300.384766,4279.230957,4254.230957,4211.922852,4242.179688,4220.641113,4108.717773,4235.384766,3581.000000,3.000000,73.000000,,,,0.000000,4.000000,4.000000,4.000000,4.000000,4.000000,4.000000,4.000000,4.000000,4.000000,4.000000,4.000000,4.000000,4.000000,4.000000,100.000000,,,,,,,,,,,,,,,,,23.000000,0.000000,0.716353,-0.110229,-0.686096,-0.062927,1.013687,-0.137209,0.031250,-23.627069,-98.545815,6.729228
1648680757.467827,1648680757.510150,93.000000,0.000000,4281.025879,4296.794922,4277.563965,4313.589844,4301.794922,4293.333496,4297.948730,4274.615234,4250.769043,4210.128418,4221.153809,4218.846191,4142.948730,4243.077148,3589.000000,3.000000,73.000000,,,,0.000000,4.000000,4.000000,4.000000,4.000000,4.000000,4.000000,4.000000,4.000000,4.000000,4.000000,4.000000,4.000000,4.000000,4.000000,100.000000,0.957031,41.666668,4.000000,4.000000,3.000000,4.000000,4.000000,3.000000,3.000000,3.000000,3.000000,3.000000,1.000000,3.000000,1.000000,4.000000,,,,,,,,,,,,
1648680757.475623,1648680757.517957,94.000000,0.000000,4279.487305,4298.717773,4274.615234,4312.820313,4303.589844,4293.333496,4295.641113,4274.102539,4248.205078,4211.410156,4212.436035,4215.641113,4171.025879,4232.307617,3616.000000,3.000000,73.000000,,,,0.000000,4.000000,4.000000,4.000000,4.000000,4.000000,4.000000,4.000000,4.000000,4.000000,4.000000,4.000000,4.000000,4.000000,4.000000,100.000000,,,,,,,,,,,,,,,,,,,,,,,,,,,,
1648680757.483420,1648680757.525763,95.000000,0.000000,4271.794922,4295.512695,4272.307617,4303.717773,4308.974121,4300.128418,4297.436035,4276.025879,4255.897461,4213.717773,4232.563965,4217.051270,4146.794922,4228.846191,3582.000000,3.000000,73.000000,,,,0.000000,4.000000,4.000000,4.000000,4.000000,4.000000,4.000000,4.000000,4.000000,4.000000,4.000000,4.000000,4.000000,4.000000,4.000000,100.000000,,,,,,,,,,,,,,,,,,,,,,,,,,,,
1648680757.491217,1648680757.533469,96.000000,0.000000,4257.307617,4283.717773,4262.820313,4291.025879,4298.717773,4292.051270,4289.102539,4267.051270,4252.820313,4207.436035,4223.846191,4206.153809,4129.743652,4224.871582,3581.000000,3.000000,73.000000,,,,0.000000,4.000000,4.000000,4.000000,4.000000,4.000000,4.000000,4.000000,4.000000,4.000000,4.000000,4.000000,4.000000,4.000000,4.000000,100.000000,,,,,,,,,,,,,,,,,24.000000,0.000000,0.717287,-0.104126,-0.686707,-0.055603,1.014176,-0.127932,0.025879,-23.627069,-97.798126,4.934768
1648680757.499014,1648680757.541176,97.000000,0.000000,4266.794922,4293.077148,4268.077148,4302.179688,4299.358887,4290.769043,4293.077148,4267.563965,4247.051270,4214.230957,4212.436035,4208.974121,4165.769043,4232.820313,3589.000000,3.000000,73.000000,,,,0.000000,4.000000,4.000000,4.000000,4.000000,4.000000,4.000000,4.000000,4.000000,4.000000,4.000000,4.000000,4.000000,4.000000,4.000000,100.000000,,,,,,,,,,,,,,,,,,,,,,,,,,,,
1648680757.506811,1648680757.548982,98.000000,0.000000,4271.922852,4295.512695,4266.410156,4302.820313,4299.487305,4292.692383,4296.794922,4264.487305,4238.846191,4209.358887,4219.487305,4213.333496,4169.230957,4233.717773,3616.000000,3.000000,73.000000,,,,0.000000,4.000000,4.000000,4.000000,4.000000,4.000000,4.000000,4.000000,4.000000,4.000000,4.000000,4.000000,4.000000,4.000000,4.000000,100.000000,,,,,,,,,,,,,,,,,,,,,,,,,,,,
1648680757.514608,1648680757.556688,99.000000,0.000000,4275.512695,4297.563965,4269.102539,4302.692383,4302.948730,4300.000000,4301.538574,4275.897461,4251.153809,4214.230957,4238.974121,4221.025879,4147.307617,4234.871582,3582.000000,3.000000,73.000000,,,,0.000000,4.000000,4.000000,4.000000,4.000000,4.000000,4.000000,4.000000,4.000000,4.000000,4.000000,4.000000,4.000000,4.000000,4.000000,100.000000,,,,,,,,,,,,,,,,,,,,,,,,,,,,
1648680757.522404,1648680757.564595,100.000000,0.000000,4281.025879,4297.307617,4275.128418,4307.436035,4303.974121,4297.051270,4303.461426,4289.487305,4263.461426,4232.051270,4244.615234,4227.436035,4155.641113,4242.051270,3581.000000,3.000000,73.000000,,,,0.000000,4.000000,4.000000,4.000000,4.000000,4.000000,4.000000,4.000000,4.000000,4.000000,4.000000,4.000000,4.000000,4.000000,4.000000,100.000000,,,,,,,,,,,,,,,,,25.000000,0.000000,0.717607,-0.099976,-0.687317,-0.051392,1.017594,-0.119631,0.038575,-23.926146,-96.452278,6.579690
1648680757.530201,1648680757.572501,101.000000,0.000000,4278.717773,4290.256348,4271.666504,4304.230957,4299.871582,4286.794922,4300.512695,4279.871582,4255.641113,4228.589844,4235.512695,4223.717773,4168.717773,4243.333496,3589.000000,3.000000,73.000000,,,,0.000000,4.000000,4.000000,4.000000,4.000000,4.000000,4.000000,4.000000,4.000000,4.000000,4.000000,4.000000,4.000000,4.000000,4.000000,100.000000,,,,,,,,,,,,,,,,,,,,,,,,,,,,
1648680757.537998,1648680757.580307,102.000000,0.000000,4267.307617,4280.512695,4264.358887,4290.897461,4291.410156,4281.922852,4293.205078,4267.307617,4246.410156,4213.077148,4220.000000,4212.307617,4168.717773,4231.282227,3616.000000,3.000000,73.000000,,,,0.000000,4.000000,4.000000,4.000000,4.000000,4.000000,4.000000,4.000000,4.000000,4.000000,4.000000,4.000000,4.000000,4.000000,4.000000,100.000000,,,,,,,,,,,,,,,,,,,,,,,,,,,,
1648680757.545795,1648680757.588113,103.000000,0.000000,4265.384766,4281.666504,4265.897461,4287.051270,4290.641113,4285.000000,4293.846191,4273.589844,4253.077148,4213.077148,4214.871582,4209.743652,4162.820313,4226.538574,3582.000000,3.000000,73.000000,,,,0.000000,4.000000,4.000000,4.000000,4.000000,4.000000,4.000000,4.000000,4.000000,4.000000,4.000000,4.000000,4.000000,4.000000,4.000000,100.000000,,,,,,,,,,,,,,,,,,,,,,,,,,,,
1648680757.553592,1648680757.595920,104.000000,0.000000,4267.948730,4287.948730,4268.077148,4293.333496,4295.641113,4287.692383,4302.692383,4285.000000,4261.282227,4226.922852,4223.205078,4216.538574,4159.487305,4231.282227,3581.000000,3.000000,73.000000,,,,0.000000,4.000000,4.000000,4.000000,4.000000,4.000000,4.000000,4.000000,4.000000,4.000000,4.000000,4.000000,4.000000,4.000000,4.000000,100.000000,,,,,,,,,,,,,,,,,26.000000,0.000000,0.717502,-0.097473,-0.687866,-0.050293,1.022965,-0.089845,0.050294,-22.729839,-97.648582,4.635691
1648680757.561388,1648680757.603726,105.000000,0.000000,4258.974121,4287.051270,4259.358887,4288.846191,4288.333496,4281.153809,4301.282227,4275.384766,4252.948730,4225.000000,4223.846191,4207.307617,4157.948730,4221.025879,3589.000000,3.000000,73.000000,,,,0.000000,4.000000,4.000000,4.000000,4.000000,4.000000,4.000000,4.000000,4.000000,4.000000,4.000000,4.000000,4.000000,4.000000,4.000000,100.000000,,,,,,,,,,,,,,,,,,,,,,,,,,,,
1648680757.569185,1648680757.611533,106.000000,0.000000,4260.641113,4282.692383,4261.025879,4283.205078,4283.333496,4282.692383,4301.025879,4269.871582,4252.051270,4221.282227,4235.641113,4207.436035,4142.051270,4224.487305,3616.000000,3.000000,73.000000,,,,0.000000,4.000000,4.000000,4.000000,4.000000,4.000000,4.000000,4.000000,4.000000,4.000000,4.000000,4.000000,4.000000,4.000000,4.000000,100.000000,,,,,,,,,,,,,,,,,,,,,,,,,,,,
1648680757.576982,1648680757.619340,107.000000,0.000000,4255.384766,4270.897461,4253.461426,4269.615234,4278.461426,4279.615234,4296.794922,4267.948730,4248.589844,4216.922852,4228.846191,4206.153809,4123.974121,4226.153809,3582.000000,3.000000,73.000000,,,,0.000000,4.000000,4.000000,4.000000,4.000000,4.000000,4.000000,4.000000,4.000000,4.000000,4.000000,4.000000,4.000000,4.000000,4.000000,100.000000,,,,,,,,,,,,,,,,,,,,,,,,,,,,
1648680757.584779,1648680757.627046,108.000000,0.000000,4258.077148,4279.358887,4256.538574,4276.538574,4287.820313,4282.820313,4302.179688,4281.410156,4261.282227,4233.846191,4218.717773,4210.256348,4159.743652,4226.922852,3581.000000,3.000000,73.000000,,,,0.000000,4.000000,4.000000,4.000000,4.000000,4.000000,4.000000,4.000000,4.000000,4.000000,4.000000,4.000000,4.000000,4.000000,4.000000,100.000000,,,,,,,,,,,,,,,,,27.000000,0.000000,0.717187,-0.096985,-0.688232,-0.050720,1.022965,-0.073243,0.037110,-22.131685,-95.555046,4.934768
1648680757.592576,1648680757.634852,109.000000,0.000000,4253.846191,4280.641113,4254.743652,4277.820313,4280.384766,4269.358887,4290.641113,4269.358887,4251.538574,4227.692383,4219.743652,4203.846191,4159.743652,4219.871582,3589.000000,3.000000,73.000000,,,,0.000000,4.000000,4.000000,4.000000,4.000000,4.000000,4.000000,4.000000,4.000000,4.000000,4.000000,4.000000,4.000000,4.000000,4.000000,100.000000,,,,,,,,,,,,,,,,,,,,,,,,,,,,
1648680757.600372,1648680757.642559,110.000000,0.000000,4253.333496,4274.487305,4251.794922,4274.358887,4275.256348,4262.436035,4279.871582,4253.461426,4232.307617,4215.128418,4232.948730,4205.641113,4134.743652,4221.282227,3616.000000,3.000000,73.000000,,,,0.000000,4.000000,4.000000,4.000000,4.000000,4.000000,4.000000,4.000000,4.000000,4.000000,4.000000,4.000000,4.000000,4.000000,4.000000,100.000000,,,,,,,,,,,,,,,,,,,,,,,,,,,,
1648680757.608169,1648680757.650365,111.000000,0.000000,4254.487305,4270.256348,4250.384766,4269.871582,4277.563965,4265.512695,4282.436035,4253.461426,4229.743652,4221.922852,4223.205078,4206.922852,4154.358887,4220.512695,3582.000000,3.000000,73.000000,,,,0.000000,4.000000,4.000000,4.000000,4.000000,4.000000,4.000000,4.000000,4.000000,4.000000,4.000000,4.000000,4.000000,4.000000,4.000000,100.000000,,,,,,,,,,,,,,,,,,,,,,,,,,,,
1648680757.615966,1648680757.658071,112.000000,0.000000,4263.974121,4278.461426,4261.153809,4280.000000,4290.897461,4275.769043,4295.641113,4266.794922,4253.077148,4241.538574,4220.256348,4215.641113,4185.769043,4230.000000,3581.000000,3.000000,73.000000,,,,0.000000,4.000000,4.000000,4.000000,4.000000,4.000000,4.000000,4.000000,4.000000,4.000000,4.000000,4.000000,4.000000,4.000000,4.000000,100.000000,,,,,,,,,,,,,,,,,28.000000,0.000000,0.716024,-0.097168,-0.689270,-0.052673,1.015640,-0.044923,0.041993,-25.421530,-96.153198,4.635691
1648680757.623763,1648680757.665878,113.000000,0.000000,4251.922852,4274.743652,4250.384766,4271.153809,4278.461426,4263.077148,4278.461426,4252.820313,4245.769043,4228.974121,4219.102539,4207.563965,4150.000000,4220.897461,3589.000000,3.000000,73.000000,,,,0.000000,4.000000,4.000000,4.000000,4.000000,4.000000,4.000000,4.000000,4.000000,4.000000,4.000000,4.000000,4.000000,4.000000,4.000000,100.000000,,,,,,,,,,,,,,,,,,,,,,,,,,,,
1648680757.631559,1648680757.673584,114.000000,0.000000,4249.743652,4275.128418,4243.974121,4263.589844,4267.948730,4258.589844,4270.000000,4244.487305,4228.974121,4218.717773,4220.769043,4201.410156,4127.307617,4217.563965,3616.000000,3.000000,73.000000,,,,0.000000,4.000000,4.000000,4.000000,4.000000,4.000000,4.000000,4.000000,4.000000,4.000000,4.000000,4.000000,4.000000,4.000000,4.000000,100.000000,,,,,,,,,,,,,,,,,,,,,,,,,,,,
1648680757.639356,1648680757.681390,115.000000,0.000000,4258.589844,4276.282227,4249.230957,4265.897461,4275.512695,4268.717773,4284.743652,4260.384766,4240.256348,4229.871582,4229.615234,4208.717773,4138.205078,4230.256348,3582.000000,3.000000,73.000000,,,,0.000000,4.000000,4.000000,4.000000,4.000000,4.000000,4.000000,4.000000,4.000000,4.000000,4.000000,4.000000,4.000000,4.000000,4.000000,100.000000,,,,,,,,,,,,,,,,,,,,,,,,,,,,
1648680757.647153,1648680757.689097,116.000000,0.000000,4260.512695,4277.563965,4253.589844,4271.922852,4286.922852,4278.974121,4297.563965,4277.820313,4261.538574,4245.384766,4244.743652,4218.974121,4142.692383,4235.512695,3581.000000,3.000000,73.000000,,,,0.000000,4.000000,4.000000,4.000000,4.000000,4.000000,4.000000,4.000000,4.000000,4.000000,4.000000,4.000000,4.000000,4.000000,4.000000,100.000000,,,,,,,,,,,,,,,,,29.000000,0.000000,0.714241,-0.098511,-0.690674,-0.055908,1.011246,-0.041505,0.022461,-22.430761,-96.003662,4.187076
1648680757.654950,1648680757.697003,117.000000,0.000000,4257.307617,4271.025879,4252.563965,4270.769043,4282.820313,4275.000000,4288.974121,4272.179688,4258.974121,4247.948730,4241.538574,4213.717773,4151.922852,4228.077148,3589.000000,3.000000,73.000000,,,,0.000000,4.000000,4.000000,4.000000,4.000000,4.000000,4.000000,4.000000,4.000000,4.000000,4.000000,4.000000,4.000000,4.000000,4.000000,100.000000,,,,,,,,,,,,,,,,,,,,,,,,,,,,
1648680757.662747,1648680757.704809,118.000000,0.000000,4258.461426,4273.205078,4250.384766,4266.410156,4276.794922,4270.256348,4281.922852,4263.333496,4248.461426,4241.794922,4224.743652,4204.615234,4162.051270,4227.179688,3616.000000,3.000000,73.000000,,,,0.000000,4.000000,4.000000,4.000000,4.000000,4.000000,4.000000,4.000000,4.000000,4.000000,4.000000,4.000000,4.000000,4.000000,4.000000,100.000000,,,,,,,,,,,,,,,,,,,,,,,,,,,,
1648680757.670544,1648680757.712715,119.000000,0.000000,4269.358887,4291.410156,4257.820313,4279.230957,4290.641113,4278.846191,4290.128418,4275.000000,4257.692383,4246.153809,4230.000000,4210.384766,4159.358887,4236.153809,3582.000000,3.000000,73.000000,,,,0.000000,4.000000,4.000000,4.000000,4.000000,4.000000,4.000000,4.000000,4.000000,4.000000,4.000000,4.000000,4.000000,4.000000,4.000000,100.000000,,,,,,,,,,,,,,,,,,,,,,,,,,,,
1648680757.678340,1648680757.720622,120.000000,0.000000,4276.538574,4293.333496,4267.820313,4289.230957,4296.794922,4279.102539,4290.256348,4280.512695,4260.769043,4250.128418,4249.743652,4218.333496,4146.794922,4241.922852,3581.000000,3.000000,73.000000,,,,0.000000,4.000000,4.000000,4.000000,4.000000,4.000000,4.000000,4.000000,4.000000,4.000000,4.000000,4.000000,4.000000,4.000000,4.000000,100.000000,,,,,,,,,,,,,,,,,30.000000,0.000000,0.712201,-0.101501,-0.692139,-0.058411,0.992203,-0.032715,0.000000,-23.627069,-95.255974,5.233844
1648680757.686137,1648680757.728428,121.000000,0.000000,4271.538574,4274.743652,4265.384766,4280.384766,4287.307617,4269.358887,4279.615234,4268.974121,4251.282227,4248.333496,4246.282227,4219.102539,4155.641113,4243.333496,3589.000000,3.000000,73.000000,,,,0.000000,4.000000,4.000000,4.000000,4.000000,4.000000,4.000000,4.000000,4.000000,4.000000,4.000000,4.000000,4.000000,4.000000,4.000000,100.000000,,,,,,,,,,,,,,,,,,,,,,,,,,,,
1648680757.693934,1648680757.736235,122.000000,0.000000,4257.692383,4269.615234,4249.230957,4263.974121,4273.461426,4256.666504,4267.692383,4249.358887,4235.256348,4232.307617,4215.128418,4200.641113,4149.615234,4227.563965,3616.000000,3.000000,73.000000,,,,0.000000,4.000000,4.000000,4.000000,4.000000,4.000000,4.000000,4.000000,4.000000,4.000000,4.000000,4.000000,4.000000,4.000000,4.000000,100.000000,,,,,,,,,,,,,,,,,,,,,,,,,,,,
1648680757.701731,1648680757.744141,123.000000,0.000000,4268.974121,4289.102539,4259.871582,4277.436035,4282.436035,4266.153809,4277.692383,4258.974121,4245.256348,4239.871582,4224.615234,4203.717773,4133.717773,4230.641113,3582.000000,3.000000,73.000000,,,,0.000000,4.000000,4.000000,4.000000,4.000000,4.000000,4.000000,4.000000,4.000000,4.000000,4.000000,4.000000,4.000000,4.000000,4.000000,100.000000,,,,,,,,,,,,,,,,,,,,,,,,,,,,
1648680757.709528,1648680757.752047,124.000000,0.000000,4262.563965,4280.128418,4259.102539,4278.589844,4279.871582,4262.948730,4275.641113,4262.307617,4249.358887,4242.436035,4234.102539,4203.974121,4131.666504,4228.461426,3581.000000,3.000000,73.000000,,,,0.000000,4.000000,4.000000,4.000000,4.000000,4.000000,4.000000,4.000000,4.000000,4.000000,4.000000,4.000000,4.000000,4.000000,4.000000,100.000000,,,,,,,,,,,,,,,,,31.000000,0.000000,0.710482,-0.104919,-0.693237,-0.060242,0.985855,-0.053712,0.000488,-22.729839,-97.648582,3.588922
1648680757.717324,1648680757.759854,125.000000,0.000000,4253.077148,4273.077148,4250.769043,4271.025879,4276.794922,4259.743652,4271.153809,4259.487305,4242.307617,4233.077148,4222.948730,4198.333496,4146.153809,4222.307617,3589.000000,3.000000,73.000000,,,,0.000000,4.000000,4.000000,4.000000,4.000000,4.000000,4.000000,4.000000,4.000000,4.000000,4.000000,4.000000,4.000000,4.000000,4.000000,100.000000,,,,,,,,,,,,,,,,,,,,,,,,,,,,
1648680757.725121,1648680757.767660,126.000000,0.000000,4253.974121,4281.153809,4246.666504,4267.820313,4276.538574,4261.025879,4269.230957,4256.666504,4235.000000,4224.871582,4216.282227,4192.436035,4132.307617,4218.333496,3616.000000,3.000000,73.000000,,,,0.000000,4.000000,4.000000,4.000000,4.000000,4.000000,4.000000,4.000000,4.000000,4.000000,4.000000,4.000000,4.000000,4.000000,4.000000,100.000000,,,,,,,,,,,,,,,,,,,,,,,,,,,,
1648680757.732918,1648680757.775466,127.000000,0.000000,4261.794922,4286.153809,4255.256348,4275.384766,4283.077148,4269.102539,4277.307617,4264.230957,4246.922852,4238.333496,4235.512695,4204.615234,4116.922852,4225.641113,55.000000,3.000000,73.000000,,,,0.000000,4.000000,4.000000,4.000000,4.000000,4.000000,4.000000,4.000000,4.000000,4.000000,4.000000,4.000000,4.000000,4.000000,4.000000,100.000000,,,,,,,,,,,,,,,,,,,,,,,,,,,,
1648680757.740715,1648680757.783372,0.000000,0.000000,4259.615234,4275.128418,4252.820313,4271.666504,4276.794922,4260.512695,4269.615234,4256.538574,4242.692383,4237.563965,4229.615234,4204.102539,4132.692383,4223.589844,3579.000000,3.000000,73.000000,,,,0.000000,4.000000,4.000000,4.000000,4.000000,4.000000,4.000000,4.000000,4.000000,4.000000,4.000000,4.000000,4.000000,4.000000,4.000000,100.000000,,,,,,,,,,,,,,,,,0.000000,0.000000,0.709641,-0.108582,-0.693481,-0.060852,0.982925,-0.066896,-0.011719,-24.075686,-96.751358,5.233844
1648680757.748512,1648680757.791279,1.000000,0.000000,4272.436035,4284.358887,4260.384766,4278.974121,4281.025879,4263.205078,4267.307617,4258.589844,4240.128418,4238.077148,4225.512695,4208.461426,4162.692383,4232.563965,3573.000000,3.000000,73.000000,,,,0.000000,4.000000,4.000000,4.000000,4.000000,4.000000,4.000000,4.000000,4.000000,4.000000,4.000000,4.000000,4.000000,4.000000,4.000000,100.000000,,,,,,,,,,,,,,,,,,,,,,,,,,,,
1648680757.756308,1648680757.799085,2.000000,0.000000,4271.410156,4285.128418,4258.589844,4275.384766,4280.256348,4266.666504,4264.230957,4262.692383,4247.179688,4243.461426,4231.794922,4213.717773,4142.820313,4232.948730,3575.000000,3.000000,73.000000,,,,0.000000,4.000000,4.000000,4.000000,4.000000,4.000000,4.000000,4.000000,4.000000,4.000000,4.000000,4.000000,4.000000,4.000000,4.000000,100.000000,,,,,,,,,,,,,,,,,,,,,,,,,,,,
1648680757.764105,1648680757.806992,3.000000,0.000000,4259.871582,4278.461426,4250.384766,4268.717773,4279.358887,4265.512695,4263.333496,4259.102539,4253.205078,4248.461426,4232.563965,4211.153809,4127.436035,4224.743652,3022.000000,3.000000,73.000000,,,,0.000000,4.000000,4.000000,4.000000,4.000000,4.000000,4.000000,4.000000,4.000000,4.000000,4.000000,4.000000,4.000000,4.000000,4.000000,100.000000,,,,,,,,,,,,,,,,,,,,,,,,,,,,
1648680757.771902,1648680757.814898,4.000000,0.000000,4258.589844,4278.333496,4247.436035,4267.948730,4276.666504,4258.077148,4256.794922,4252.436035,4243.461426,4244.743652,4224.871582,4204.358887,4147.820313,4223.461426,3611.000000,3.000000,73.000000,,,,0.000000,4.000000,4.000000,4.000000,4.000000,4.000000,4.000000,4.000000,4.000000,4.000000,4.000000,4.000000,4.000000,4.000000,4.000000,100.000000,,,,,,,,,,,,,,,,,1.000000,0.000000,0.709715,-0.112061,-0.692932,-0.059937,0.990250,-0.065431,-0.009277,-24.075686,-96.302742,4.187076
1648680757.779699,1648680757.822705,5.000000,0.000000,4266.025879,4285.384766,4251.538574,4272.820313,4275.384766,4257.820313,4253.846191,4252.051270,4237.436035,4239.615234,4225.256348,4204.743652,4152.820313,4229.230957,3591.000000,3.000000,73.000000,,,,0.000000,4.000000,4.000000,4.000000,4.000000,4.000000,4.000000,4.000000,4.000000,4.000000,4.000000,4.000000,4.000000,4.000000,4.000000,100.000000,,,,,,,,,,,,,,,,,,,,,,,,,,,,
1648680757.787496,1648680757.830511,6.000000,0.000000,4266.794922,4286.410156,4253.846191,4275.384766,4280.769043,4263.846191,4257.948730,4257.692383,4247.948730,4246.025879,4237.563965,4210.512695,4123.589844,4233.589844,3386.000000,3.000000,73.000000,,,,0.000000,4.000000,4.000000,4.000000,4.000000,4.000000,4.000000,4.000000,4.000000,4.000000,4.000000,4.000000,4.000000,4.000000,4.000000,100.000000,,,,,,,,,,,,,,,,,,,,,,,,,,,,
1648680757.795293,1648680757.838418,7.000000,0.000000,4258.077148,4278.077148,4247.820313,4268.077148,4283.205078,4258.333496,4255.641113,4257.307617,4246.666504,4252.179688,4238.461426,4208.461426,4118.333496,4230.384766,3583.000000,3.000000,73.000000,,,,0.000000,4.000000,4.000000,4.000000,4.000000,4.000000,4.000000,4.000000,4.000000,4.000000,4.000000,4.000000,4.000000,4.000000,4.000000,100.000000,,,,,,,,,,,,,,,,,,,,,,,,,,,,
1648680757.803089,1648680757.846224,8.000000,0.000000,4253.589844,4275.256348,4245.512695,4265.384766,4275.769043,4250.897461,4249.230957,4254.487305,4233.974121,4246.153809,4219.487305,4203.333496,4156.538574,4224.230957,3572.000000,3.000000,73.000000,,,,0.000000,4.000000,4.000000,4.000000,4.000000,4.000000,4.000000,4.000000,4.000000,4.000000,4.000000,4.000000,4.000000,4.000000,4.000000,100.000000,,,,,,,,,,,,,,,,,2.000000,0.000000,0.710350,-0.114136,-0.692078,-0.058350,1.008804,-0.072755,0.001465,-22.879377,-98.545815,6.280613
1648680757.810886,1648680757.854131,9.000000,0.000000,4251.282227,4278.205078,4240.256348,4262.179688,4263.974121,4246.410156,4245.000000,4242.307617,4225.641113,4225.897461,4203.717773,4194.871582,4158.974121,4215.512695,3600.000000,3.000000,73.000000,,,,0.000000,4.000000,4.000000,4.000000,4.000000,4.000000,4.000000,4.000000,4.000000,4.000000,4.000000,4.000000,4.000000,4.000000,4.000000,100.000000,,,,,,,,,,,,,,,,,,,,,,,,,,,,
1648680757.818683,1648680757.861937,10.000000,0.000000,4260.128418,4279.615234,4247.179688,4265.769043,4270.000000,4248.974121,4248.333496,4243.333496,4240.897461,4237.179688,4233.333496,4204.487305,4125.641113,4225.512695,3612.000000,3.000000,73.000000,,,,0.000000,4.000000,4.000000,4.000000,4.000000,4.000000,4.000000,4.000000,4.000000,4.000000,4.000000,4.000000,4.000000,4.000000,4.000000,100.000000,,,,,,,,,,,,,,,,,,,,,,,,,,,,
1648680757.826480,1648680757.869844,11.000000,0.000000,4257.563965,4270.128418,4247.179688,4260.256348,4265.641113,4239.615234,4241.025879,4241.410156,4239.230957,4248.077148,4240.769043,4205.512695,4111.922852,4224.358887,3592.000000,3.000000,73.000000,,,,0.000000,4.000000,4.000000,4.000000,4.000000,4.000000,4.000000,4.000000,4.000000,4.000000,4.000000,4.000000,4.000000,4.000000,4.000000,100.000000,,,,,,,,,,,,,,,,,,,,,,,,,,,,
1648680757.834277,1648680757.877650,12.000000,0.000000,4265.000000,4282.820313,4254.358887,4272.692383,4273.717773,4246.794922,4251.922852,4248.205078,4240.897461,4248.717773,4221.922852,4210.000000,4154.871582,4229.102539,3604.000000,3.000000,73.000000,,,,0.000000,4.000000,4.000000,4.000000,4.000000,4.000000,4.000000,4.000000,4.000000,4.000000,4.000000,4.000000,4.000000,4.000000,4.000000,100.000000,,,,,,,,,,,,,,,,,3.000000,0.000000,0.711290,-0.114685,-0.691162,-0.056641,1.033707,-0.100099,0.004395,-24.673838,-98.396278,5.383383
1648680757.842073,1648680757.885557,13.000000,0.000000,4258.846191,4283.974121,4243.077148,4267.051270,4270.128418,4244.487305,4254.487305,4241.025879,4234.615234,4232.307617,4208.846191,4201.794922,4155.384766,4221.794922,3620.000000,3.000000,73.000000,,,,0.000000,4.000000,4.000000,4.000000,4.000000,4.000000,4.000000,4.000000,4.000000,4.000000,4.000000,4.000000,4.000000,4.000000,4.000000,100.000000,,,,,,,,,,,,,,,,,,,,,,,,,,,,
1648680757.849870,1648680757.893363,14.000000,0.000000,4247.179688,4271.025879,4230.128418,4252.051270,4257.436035,4239.487305,4249.102539,4233.589844,4227.563965,4228.846191,4221.794922,4194.487305,4114.615234,4214.358887,3612.000000,3.000000,73.000000,,,,0.000000,4.000000,4.000000,4.000000,4.000000,4.000000,4.000000,4.000000,4.000000,4.000000,4.000000,4.000000,4.000000,4.000000,4.000000,100.000000,,,,,,,,,,,,,,,,,,,,,,,,,,,,
1648680757.857667,1648680757.901170,15.000000,0.000000,4248.589844,4265.384766,4233.717773,4255.897461,4255.641113,4241.538574,4247.307617,4231.666504,4222.436035,4227.820313,4224.487305,4197.051270,4111.025879,4217.948730,3592.000000,3.000000,73.000000,,,,0.000000,4.000000,4.000000,4.000000,4.000000,4.000000,4.000000,4.000000,4.000000,4.000000,4.000000,4.000000,4.000000,4.000000,4.000000,100.000000,,,,,,,,,,,,,,,,,,,,,,,,,,,,
1648680757.865464,1648680757.909176,16.000000,0.000000,4263.974121,4273.589844,4248.846191,4269.358887,4272.948730,4253.333496,4258.846191,4241.538574,4227.051270,4226.025879,4219.230957,4206.922852,4150.000000,4228.974121,0.000000,3.000000,73.000000,,,,0.000000,4.000000,4.000000,4.000000,4.000000,4.000000,4.000000,4.000000,4.000000,4.000000,4.000000,4.000000,4.000000,4.000000,4.000000,100.000000,,,,,,,,,,,,,,,,,4.000000,0.000000,0.711743,-0.114502,-0.690796,-0.055786,1.011246,-0.086915,0.009277,-25.571070,-97.499046,5.981536
1648680757.873261,1648680757.916983,17.000000,0.000000,4248.333496,4264.102539,4236.410156,4250.256348,4265.000000,4246.666504,4251.922852,4238.333496,4223.333496,4222.563965,4207.820313,4192.051270,4145.897461,4212.051270,0.000000,3.000000,73.000000,,,,0.000000,4.000000,4.000000,4.000000,4.000000,4.000000,4.000000,4.000000,4.000000,4.000000,4.000000,4.000000,4.000000,4.000000,4.000000,100.000000,,,,,,,,,,,,,,,,,,,,,,,,,,,,
1648680757.881057,1648680757.924789,18.000000,0.000000,4240.641113,4265.512695,4230.512695,4244.871582,4252.820313,4241.410156,4245.769043,4236.025879,4229.102539,4233.717773,4211.410156,4187.563965,4128.205078,4207.307617,0.000000,3.000000,73.000000,,,,0.000000,4.000000,4.000000,4.000000,4.000000,4.000000,4.000000,4.000000,4.000000,4.000000,4.000000,4.000000,4.000000,4.000000,4.000000,100.000000,,,,,,,,,,,,,,,,,,,,,,,,,,,,
1648680757.888854,1648680757.932696,19.000000,0.000000,4252.563965,4273.077148,4239.871582,4256.794922,4251.794922,4234.230957,4240.641113,4235.897461,4231.922852,4231.666504,4217.948730,4198.077148,4126.025879,4218.077148,0.000000,3.000000,73.000000,,,,0.000000,4.000000,4.000000,4.000000,4.000000,4.000000,4.000000,4.000000,4.000000,4.000000,4.000000,4.000000,4.000000,4.000000,4.000000,100.000000,,,,,,,,,,,,,,,,,,,,,,,,,,,,
1648680757.896651,1648680757.940602,20.000000,0.000000,4260.641113,4274.487305,4245.512695,4259.102539,4256.794922,4234.487305,4238.461426,4236.153809,4228.461426,4222.820313,4221.282227,4202.307617,4117.563965,4222.307617,0.000000,3.000000,73.000000,,,,0.000000,4.000000,4.000000,4.000000,4.000000,4.000000,4.000000,4.000000,4.000000,4.000000,4.000000,4.000000,4.000000,4.000000,4.000000,100.000000,,,,,,,,,,,,,,,,,5.000000,0.000000,0.712272,-0.113586,-0.690552,-0.053894,1.023941,-0.092775,0.001953,-23.477531,-96.900894,5.084306
1648680757.904448,1648680757.948409,21.000000,0.000000,4253.205078,4271.410156,4240.897461,4253.077148,4253.974121,4244.358887,4237.051270,4235.128418,4228.205078,4229.487305,4223.461426,4197.051270,4118.205078,4219.871582,0.000000,3.000000,73.000000,,,,0.000000,4.000000,4.000000,4.000000,4.000000,4.000000,4.000000,4.000000,4.000000,4.000000,4.000000,4.000000,4.000000,4.000000,4.000000,100.000000,,,,,,,,,,,,,,,,,,,,,,,,,,,,
1648680757.912245,1648680757.956215,22.000000,0.000000,4245.769043,4269.102539,4232.436035,4249.871582,4247.948730,4239.871582,4231.025879,4230.641113,4223.589844,4234.230957,4222.820313,4191.282227,4122.692383,4217.307617,0.000000,3.000000,73.000000,,,,0.000000,4.000000,4.000000,4.000000,4.000000,4.000000,4.000000,4.000000,4.000000,4.000000,4.000000,4.000000,4.000000,4.000000,4.000000,100.000000,,,,,,,,,,,,,,,,,,,,,,,,,,,,
1648680757.920041,1648680757.964122,23.000000,0.000000,4253.974121,4268.846191,4233.333496,4255.000000,4258.205078,4230.128418,4229.230957,4232.436035,4222.179688,4228.077148,4223.974121,4196.666504,4116.025879,4221.153809,0.000000,3.000000,73.000000,,,,0.000000,4.000000,4.000000,4.000000,4.000000,4.000000,4.000000,4.000000,4.000000,4.000000,4.000000,4.000000,4.000000,4.000000,4.000000,100.000000,,,,,,,,,,,,,,,,,,,,,,,,,,,,
1648680757.927838,1648680757.972028,24.000000,0.000000,4260.000000,4273.846191,4241.794922,4260.256348,4267.820313,4234.487305,4229.358887,4232.179688,4223.589844,4221.666504,4221.025879,4200.897461,4122.820313,4223.974121,0.000000,3.000000,73.000000,,,,0.000000,4.000000,4.000000,4.000000,4.000000,4.000000,4.000000,4.000000,4.000000,4.000000,4.000000,4.000000,4.000000,4.000000,4.000000,100.000000,,,,,,,,,,,,,,,,,6.000000,0.000000,0.712341,-0.112549,-0.690796,-0.052002,1.018082,-0.098146,0.018555,-24.225224,-96.452278,4.635691
1648680757.935635,1648680757.979835,25.000000,0.000000,4254.230957,4277.307617,4242.436035,4258.974121,4261.538574,4240.512695,4231.666504,4231.153809,4222.563965,4223.077148,4220.897461,4195.769043,4122.179688,4217.820313,0.000000,3.000000,73.000000,,,,0.000000,4.000000,4.000000,4.000000,4.000000,4.000000,4.000000,4.000000,4.000000,4.000000,4.000000,4.000000,4.000000,4.000000,4.000000,100.000000,,,,,,,,,,,,,,,,,,,,,,,,,,,,
1648680757.943432,1648680757.987641,26.000000,0.000000,4237.307617,4260.512695,4220.769043,4240.000000,4250.000000,4229.871582,4228.205078,4225.897461,4214.230957,4215.128418,4208.333496,4177.179688,4098.461426,4202.563965,0.000000,3.000000,73.000000,,,,0.000000,4.000000,4.000000,4.000000,4.000000,4.000000,4.000000,4.000000,4.000000,4.000000,4.000000,4.000000,4.000000,4.000000,4.000000,100.000000,,,,,,,,,,,,,,,,,,,,,,,,,,,,
1648680757.951229,1648680757.995548,27.000000,0.000000,4241.025879,4254.743652,4224.487305,4243.333496,4264.871582,4242.307617,4237.307617,4243.974121,4235.256348,4230.769043,4203.333496,4181.282227,4119.230957,4209.358887,0.000000,3.000000,73.000000,,,,0.000000,4.000000,4.000000,4.000000,4.000000,4.000000,4.000000,4.000000,4.000000,4.000000,4.000000,4.000000,4.000000,4.000000,4.000000,100.000000,,,,,,,,,,,,,,,,,,,,,,,,,,,,
1648680757.959026,1648680758.003454,28.000000,0.000000,4238.589844,4256.282227,4230.512695,4248.461426,4262.692383,4246.538574,4233.077148,4245.641113,4239.871582,4232.820313,4204.743652,4180.384766,4108.974121,4203.461426,0.000000,3.000000,73.000000,,,,0.000000,4.000000,4.000000,4.000000,4.000000,4.000000,4.000000,4.000000,4.000000,4.000000,4.000000,4.000000,4.000000,4.000000,4.000000,100.000000,,,,,,,,,,,,,,,,,7.000000,0.000000,0.712046,-0.111816,-0.691345,-0.050293,1.009293,-0.103029,0.000488,-24.524300,-97.798126,4.934768
1648680757.966822,1648680758.011261,29.000000,0.000000,4240.000000,4261.153809,4230.897461,4246.025879,4258.205078,4238.717773,4228.717773,4236.538574,4226.410156,4223.205078,4214.871582,4179.102539,4076.410156,4202.692383,0.000000,3.000000,73.000000,,,,0.000000,4.000000,4.000000,4.000000,4.000000,4.000000,4.000000,4.000000,4.000000,4.000000,4.000000,4.000000,4.000000,4.000000,4.000000,100.000000,0.976563,41.666668,4.000000,4.000000,3.000000,4.000000,4.000000,4.000000,4.000000,3.000000,3.000000,3.000000,1.000000,4.000000,1.000000,4.000000,,,,,,,,,,,,
1648680757.974619,1648680758.019067,30.000000,0.000000,4238.589844,4255.769043,4223.846191,4234.615234,4256.025879,4233.333496,4223.974121,4231.153809,4220.769043,4218.846191,4205.769043,4179.358887,4108.205078,4204.615234,0.000000,3.000000,73.000000,,,,0.000000,4.000000,4.000000,4.000000,4.000000,4.000000,4.000000,4.000000,4.000000,4.000000,4.000000,4.000000,4.000000,4.000000,4.000000,100.000000,,,,,,,,,,,,,,,,,,,,,,,,,,,,
1648680757.982416,1648680758.026974,31.000000,0.000000,4244.871582,4260.256348,4231.794922,4242.692383,4262.692383,4244.230957,4229.358887,4241.025879,4234.230957,4229.871582,4215.769043,4192.820313,4135.512695,4214.358887,0.000000,3.000000,73.000000,,,,0.000000,4.000000,4.000000,4.000000,4.000000,4.000000,4.000000,4.000000,4.000000,4.000000,4.000000,4.000000,4.000000,4.000000,4.000000,100.000000,,,,,,,,,,,,,,,,,,,,,,,,,,,,
1648680757.990213,1648680758.034880,32.000000,0.000000,4244.871582,4260.897461,4228.974121,4246.922852,4257.563965,4238.846191,4225.769043,4233.589844,4225.384766,4223.077148,4219.487305,4189.102539,4093.076904,4212.179688,0.000000,3.000000,73.000000,,,,0.000000,4.000000,4.000000,4.000000,4.000000,4.000000,4.000000,4.000000,4.000000,4.000000,4.000000,4.000000,4.000000,4.000000,4.000000,100.000000,,,,,,,,,,,,,,,,,8.000000,0.000000,0.711421,-0.111206,-0.692200,-0.048706,1.018082,-0.093263,0.019532,-24.075686,-97.050430,5.233844
1648680757.998010,1648680758.042786,33.000000,0.000000,4250.512695,4266.153809,4231.153809,4251.153809,4261.794922,4241.025879,4227.820313,4232.307617,4220.128418,4221.922852,4203.974121,4182.948730,4120.384766,4211.794922,0.000000,3.000000,73.000000,,,,0.000000,4.000000,4.000000,4.000000,4.000000,4.000000,4.000000,4.000000,4.000000,4.000000,4.000000,4.000000,4.000000,4.000000,4.000000,100.000000,,,,,,,,,,,,,,,,,,,,,,,,,,,,
1648680758.005806,1648680758.050593,34.000000,0.000000,4250.897461,4265.384766,4233.589844,4248.974121,4262.307617,4241.666504,4225.769043,4237.820313,4222.692383,4226.794922,4206.025879,4186.538574,4140.128418,4215.641113,0.000000,3.000000,73.000000,,,,0.000000,4.000000,4.000000,4.000000,4.000000,4.000000,4.000000,4.000000,4.000000,4.000000,4.000000,4.000000,4.000000,4.000000,4.000000,100.000000,,,,,,,,,,,,,,,,,,,,,,,,,,,,
1648680758.013603,1648680758.058399,35.000000,0.000000,4248.461426,4264.230957,4228.461426,4243.974121,4260.384766,4239.743652,4226.538574,4237.179688,4225.384766,4224.871582,4232.051270,4194.615234,4078.974365,4222.948730,0.000000,3.000000,73.000000,,,,0.000000,4.000000,4.000000,4.000000,4.000000,4.000000,4.000000,4.000000,4.000000,4.000000,4.000000,4.000000,4.000000,4.000000,4.000000,100.000000,,,,,,,,,,,,,,,,,,,,,,,,,,,,
1648680758.021400,1648680758.066306,36.000000,0.000000,4240.384766,4262.563965,4217.820313,4237.820313,4261.025879,4242.820313,4231.025879,4234.615234,4227.436035,4218.461426,4220.641113,4184.358887,4087.051270,4213.077148,0.000000,3.000000,73.000000,,,,0.000000,4.000000,4.000000,4.000000,4.000000,4.000000,4.000000,4.000000,4.000000,4.000000,4.000000,4.000000,4.000000,4.000000,4.000000,100.000000,,,,,,,,,,,,,,,,,9.000000,0.000000,0.710918,-0.110901,-0.692871,-0.047180,0.992691,-0.114748,0.005371,-23.627069,-97.499046,3.738460
1648680758.029197,1648680758.074212,37.000000,0.000000,4234.230957,4257.948730,4215.512695,4233.589844,4262.436035,4245.128418,4235.384766,4236.410156,4224.487305,4215.000000,4192.179688,4174.615234,4149.230957,4200.000000,0.000000,3.000000,73.000000,,,,0.000000,4.000000,4.000000,4.000000,4.000000,4.000000,4.000000,4.000000,4.000000,4.000000,4.000000,4.000000,4.000000,4.000000,4.000000,100.000000,,,,,,,,,,,,,,,,,,,,,,,,,,,,
1648680758.036994,1648680758.082019,38.000000,0.000000,4239.230957,4250.384766,4221.538574,4233.589844,4260.769043,4240.000000,4234.102539,4235.128418,4219.743652,4215.256348,4198.717773,4183.589844,4132.563965,4209.743652,0.000000,3.000000,73.000000,,,,0.000000,4.000000,4.000000,4.000000,4.000000,4.000000,4.000000,4.000000,4.000000,4.000000,4.000000,4.000000,4.000000,4.000000,4.000000,100.000000,,,,,,,,,,,,,,,,,,,,,,,,,,,,
1648680758.044790,1648680758.089825,39.000000,0.000000,4240.769043,4251.794922,4223.205078,4238.717773,4257.692383,4236.153809,4231.282227,4229.871582,4219.230957,4211.922852,4206.538574,4182.563965,4086.794922,4209.615234,0.000000,3.000000,73.000000,,,,0.000000,4.000000,4.000000,4.000000,4.000000,4.000000,4.000000,4.000000,4.000000,4.000000,4.000000,4.000000,4.000000,4.000000,4.000000,100.000000,,,,,,,,,,,,,,,,,,,,,,,,,,,,
1648680758.052587,1648680758.097732,40.000000,0.000000,4238.717773,4260.897461,4224.743652,4245.256348,4260.897461,4240.256348,4236.282227,4233.717773,4219.871582,4212.179688,4202.307617,4177.436035,4099.358887,4199.358887,0.000000,3.000000,73.000000,,,,0.000000,4.000000,4.000000,4.000000,4.000000,4.000000,4.000000,4.000000,4.000000,4.000000,4.000000,4.000000,4.000000,4.000000,4.000000,100.000000,,,,,,,,,,,,,,,,,10.000000,0.000000,0.710563,-0.109558,-0.693481,-0.046692,0.997086,-0.083009,0.010254,-24.225224,-97.199966,2.841230
1648680758.060384,1648680758.105638,41.000000,0.000000,4231.282227,4253.846191,4218.205078,4231.538574,4253.333496,4235.256348,4233.846191,4229.871582,4209.230957,4213.974121,4206.410156,4177.179688,4104.102539,4197.307617,0.000000,3.000000,73.000000,,,,0.000000,4.000000,4.000000,4.000000,4.000000,4.000000,4.000000,4.000000,4.000000,4.000000,4.000000,4.000000,4.000000,4.000000,4.000000,100.000000,,,,,,,,,,,,,,,,,,,,,,,,,,,,
1648680758.068181,1648680758.113445,42.000000,0.000000,4235.256348,4247.307617,4223.077148,4230.897461,4252.563965,4239.871582,4234.743652,4228.205078,4217.051270,4226.666504,4216.153809,4184.230957,4112.820313,4208.461426,0.000000,3.000000,73.000000,,,,0.000000,4.000000,4.000000,4.000000,4.000000,4.000000,4.000000,4.000000,4.000000,4.000000,4.000000,4.000000,4.000000,4.000000,4.000000,100.000000,,,,,,,,,,,,,,,,,,,,,,,,,,,,
1648680758.075977,1648680758.121251,43.000000,0.000000,4231.794922,4245.512695,4220.897461,4234.487305,4249.487305,4236.153809,4227.179688,4215.641113,4210.769043,4211.282227,4188.205078,4169.487305,4123.717773,4197.436035,0.000000,3.000000,73.000000,,,,0.000000,4.000000,4.000000,4.000000,4.000000,4.000000,4.000000,4.000000,4.000000,4.000000,4.000000,4.000000,4.000000,4.000000,4.000000,100.000000,,,,,,,,,,,,,,,,,,,,,,,,,,,,
1648680758.083774,1648680758.129158,44.000000,0.000000,4239.358887,4254.230957,4225.128418,4237.948730,4261.153809,4241.410156,4237.051270,4231.538574,4218.717773,4206.282227,4189.871582,4176.282227,4107.179688,4198.846191,0.000000,3.000000,73.000000,,,,0.000000,4.000000,4.000000,4.000000,4.000000,4.000000,4.000000,4.000000,4.000000,4.000000,4.000000,4.000000,4.000000,4.000000,4.000000,100.000000,,,,,,,,,,,,,,,,,11.000000,0.000000,0.710405,-0.107422,-0.693970,-0.046814,0.998062,-0.089357,0.015625,-23.926146,-96.452278,3.887999
1648680758.091571,1648680758.137064,45.000000,0.000000,4232.307617,4246.794922,4215.128418,4221.153809,4258.461426,4240.000000,4242.563965,4245.384766,4229.102539,4209.871582,4209.358887,4179.615234,4074.230713,4198.077148,0.000000,3.000000,73.000000,,,,0.000000,4.000000,4.000000,4.000000,4.000000,4.000000,4.000000,4.000000,4.000000,4.000000,4.000000,4.000000,4.000000,4.000000,4.000000,100.000000,,,,,,,,,,,,,,,,,,,,,,,,,,,,
1648680758.099368,1648680758.144871,46.000000,0.000000,4234.487305,4249.358887,4216.410156,4226.922852,4252.307617,4240.256348,4243.077148,4239.743652,4223.589844,4220.897461,4219.871582,4180.512695,4086.538574,4204.615234,0.000000,3.000000,73.000000,,,,0.000000,4.000000,4.000000,4.000000,4.000000,4.000000,4.000000,4.000000,4.000000,4.000000,4.000000,4.000000,4.000000,4.000000,4.000000,100.000000,,,,,,,,,,,,,,,,,,,,,,,,,,,,
1648680758.107165,1648680758.152677,47.000000,0.000000,4247.051270,4263.077148,4230.641113,4246.538574,4252.179688,4235.256348,4238.717773,4228.589844,4211.922852,4226.794922,4220.000000,4184.743652,4105.256348,4212.179688,0.000000,3.000000,73.000000,,,,0.000000,4.000000,4.000000,4.000000,4.000000,4.000000,4.000000,4.000000,4.000000,4.000000,4.000000,4.000000,4.000000,4.000000,4.000000,100.000000,,,,,,,,,,,,,,,,,,,,,,,,,,,,
1648680758.114962,1648680758.160584,48.000000,0.000000,4251.153809,4269.615234,4237.179688,4249.230957,4263.717773,4234.871582,4238.077148,4234.102539,4221.153809,4225.641113,4212.948730,4189.487305,4129.230957,4215.769043,0.000000,3.000000,73.000000,,,,0.000000,4.000000,4.000000,4.000000,4.000000,4.000000,4.000000,4.000000,4.000000,4.000000,4.000000,4.000000,4.000000,4.000000,4.000000,100.000000,,,,,,,,,,,,,,,,,12.000000,0.000000,0.710349,-0.106018,-0.694214,-0.047241,1.012223,-0.076661,0.016602,-24.823378,-97.499046,5.233844
1648680758.122759,1648680758.168490,49.000000,0.000000,4237.307617,4252.307617,4219.871582,4230.000000,4257.820313,4227.179688,4228.717773,4226.922852,4218.461426,4213.461426,4203.077148,4180.897461,4136.538574,4208.717773,0.000000,3.000000,73.000000,,,,0.000000,4.000000,4.000000,4.000000,4.000000,4.000000,4.000000,4.000000,4.000000,4.000000,4.000000,4.000000,4.000000,4.000000,4.000000,100.000000,,,,,,,,,,,,,,,,,,,,,,,,,,,,
1648680758.130555,1648680758.176297,50.000000,0.000000,4255.256348,4257.820313,4230.512695,4242.436035,4257.436035,4229.102539,4236.538574,4229.743652,4223.077148,4227.948730,4237.692383,4195.897461,4113.846191,4222.692383,0.000000,3.000000,73.000000,,,,0.000000,4.000000,4.000000,4.000000,4.000000,4.000000,4.000000,4.000000,4.000000,4.000000,4.000000,4.000000,4.000000,4.000000,4.000000,100.000000,,,,,,,,,,,,,,,,,,,,,,,,,,,,
1648680758.138352,1648680758.184103,51.000000,0.000000,4258.333496,4254.102539,4234.871582,4245.000000,4243.846191,4224.102539,4238.846191,4230.128418,4226.538574,4230.641113,4227.692383,4194.102539,4111.794922,4219.230957,0.000000,3.000000,73.000000,,,,0.000000,4.000000,4.000000,4.000000,4.000000,4.000000,4.000000,4.000000,4.000000,4.000000,4.000000,4.000000,4.000000,4.000000,4.000000,100.000000,,,,,,,,,,,,,,,,,,,,,,,,,,,,
1648680758.146149,1648680758.192010,52.000000,0.000000,4235.769043,4248.846191,4218.846191,4230.384766,4243.333496,4224.743652,4240.128418,4219.743652,4217.051270,4214.871582,4181.666504,4175.128418,4159.615234,4205.128418,0.000000,3.000000,73.000000,,,,0.000000,4.000000,4.000000,4.000000,4.000000,4.000000,4.000000,4.000000,4.000000,4.000000,4.000000,4.000000,4.000000,4.000000,4.000000,100.000000,,,,,,,,,,,,,,,,,13.000000,0.000000,0.710393,-0.103333,-0.694519,-0.048035,0.996597,-0.086915,0.013672,-23.926146,-96.900894,3.887999
1648680758.153946,1648680758.199916,53.000000,0.000000,4241.153809,4270.641113,4224.230957,4243.974121,4261.410156,4235.897461,4248.077148,4220.769043,4214.743652,4223.589844,4216.025879,4186.282227,4154.615234,4218.333496,0.000000,3.000000,73.000000,,,,0.000000,4.000000,4.000000,4.000000,4.000000,4.000000,4.000000,4.000000,4.000000,4.000000,4.000000,4.000000,4.000000,4.000000,4.000000,100.000000,,,,,,,,,,,,,,,,,,,,,,,,,,,,
1648680758.161742,1648680758.207723,54.000000,0.000000,4225.384766,4252.563965,4207.563965,4231.153809,4210.256348,4216.666504,4234.102539,4198.333496,4187.820313,4196.153809,4211.538574,4163.461426,4073.205078,4193.846191,0.000000,3.000000,73.000000,,,,0.000000,4.000000,4.000000,4.000000,4.000000,4.000000,4.000000,4.000000,4.000000,4.000000,4.000000,4.000000,4.000000,4.000000,4.000000,100.000000,,,,,,,,,,,,,,,,,,,,,,,,,,,,
1648680758.169539,1648680758.215629,55.000000,0.000000,4197.948730,4218.461426,4185.256348,4203.589844,4177.307617,4200.641113,4232.307617,4183.461426,4173.333496,4167.692383,4145.000000,4131.410156,4078.076904,4164.743652,0.000000,3.000000,73.000000,,,,0.000000,4.000000,4.000000,4.000000,4.000000,4.000000,4.000000,4.000000,4.000000,4.000000,4.000000,4.000000,4.000000,4.000000,4.000000,100.000000,,,,,,,,,,,,,,,,,,,,,,,,,,,,
1648680758.177336,1648680758.223536,56.000000,0.000000,4220.128418,4244.102539,4206.153809,4221.153809,4248.205078,4218.846191,4260.769043,4217.307617,4213.077148,4207.563965,4174.743652,4163.205078,4157.948730,4196.538574,0.000000,3.000000,73.000000,,,,0.000000,4.000000,4.000000,4.000000,4.000000,4.000000,4.000000,4.000000,4.000000,4.000000,4.000000,4.000000,4.000000,4.000000,4.000000,100.000000,,,,,,,,,,,,,,,,,14.000000,0.000000,0.710647,-0.101929,-0.694458,-0.048157,1.021500,-0.085939,0.011719,-23.627069,-97.050430,5.682460
1648680758.185133,1648680758.231342,57.000000,0.000000,4252.179688,4273.589844,4229.487305,4244.487305,4296.025879,4236.025879,4272.051270,4246.538574,4245.769043,4251.025879,4254.230957,4203.205078,4163.717773,4227.948730,0.000000,3.000000,73.000000,,,,0.000000,4.000000,4.000000,4.000000,4.000000,4.000000,4.000000,4.000000,4.000000,4.000000,4.000000,4.000000,4.000000,4.000000,4.000000,100.000000,,,,,,,,,,,,,,,,,,,,,,,,,,,,
1648680758.192930,1648680758.239149,58.000000,0.000000,4233.461426,4242.820313,4207.051270,4222.307617,4244.743652,4216.025879,4251.282227,4220.641113,4218.846191,4229.358887,4232.051270,4180.512695,4112.820313,4203.846191,0.000000,3.000000,73.000000,,,,0.000000,4.000000,4.000000,4.000000,4.000000,4.000000,4.000000,4.000000,4.000000,4.000000,4.000000,4.000000,4.000000,4.000000,4.000000,100.000000,,,,,,,,,,,,,,,,,,,,,,,,,,,,
1648680758.200726,1648680758.247055,59.000000,0.000000,4228.077148,4229.871582,4202.307617,4216.922852,4231.538574,4214.615234,4260.256348,4218.717773,4220.256348,4224.102539,4210.128418,4173.333496,4119.615234,4203.974121,0.000000,3.000000,73.000000,,,,0.000000,4.000000,4.000000,4.000000,4.000000,4.000000,4.000000,4.000000,4.000000,4.000000,4.000000,4.000000,4.000000,4.000000,4.000000,100.000000,,,,,,,,,,,,,,,,,,,,,,,,,,,,
1648680758.208523,1648680758.254962,60.000000,0.000000,4216.922852,4231.666504,4195.128418,4206.410156,4241.282227,4214.615234,4262.179688,4218.717773,4226.794922,4228.077148,4211.538574,4166.538574,4134.743652,4198.846191,0.000000,3.000000,73.000000,,,,0.000000,4.000000,4.000000,4.000000,4.000000,4.000000,4.000000,4.000000,4.000000,4.000000,4.000000,4.000000,4.000000,4.000000,4.000000,100.000000,,,,,,,,,,,,,,,,,15.000000,0.000000,0.710686,-0.101440,-0.694519,-0.047729,0.997574,-0.085939,0.007813,-24.075686,-97.050430,4.486153
1648680758.216320,1648680758.262768,61.000000,0.000000,4202.307617,4231.666504,4190.256348,4201.282227,4230.512695,4215.512695,4259.871582,4210.128418,4215.897461,4225.769043,4194.743652,4153.205078,4143.077148,4179.871582,0.000000,3.000000,73.000000,,,,0.000000,4.000000,4.000000,4.000000,4.000000,4.000000,4.000000,4.000000,4.000000,4.000000,4.000000,4.000000,4.000000,4.000000,4.000000,100.000000,,,,,,,,,,,,,,,,,,,,,,,,,,,,
1648680758.224117,1648680758.270575,62.000000,0.000000,4211.282227,4237.820313,4202.436035,4212.307617,4230.769043,4222.307617,4269.615234,4214.743652,4208.717773,4223.589844,4194.487305,4166.666504,4149.487305,4188.846191,0.000000,3.000000,73.000000,,,,0.000000,4.000000,4.000000,4.000000,4.000000,4.000000,4.000000,4.000000,4.000000,4.000000,4.000000,4.000000,4.000000,4.000000,4.000000,100.000000,,,,,,,,,,,,,,,,,,,,,,,,,,,,
1648680758.231914,1648680758.278381,63.000000,0.000000,4231.025879,4247.051270,4218.333496,4218.717773,4238.974121,4229.871582,4282.436035,4227.179688,4224.743652,4229.615234,4222.436035,4190.384766,4136.922852,4211.922852,0.000000,3.000000,73.000000,,,,0.000000,4.000000,4.000000,4.000000,4.000000,4.000000,4.000000,4.000000,4.000000,4.000000,4.000000,4.000000,4.000000,4.000000,4.000000,100.000000,,,,,,,,,,,,,,,,,,,,,,,,,,,,
1648680758.239710,1648680758.286387,64.000000,0.000000,4225.512695,4237.692383,4210.641113,4210.512695,4221.538574,4211.025879,4272.563965,4210.512695,4223.333496,4229.358887,4207.436035,4176.794922,4121.922852,4202.436035,3560.000000,3.000000,73.000000,,,,0.000000,4.000000,4.000000,4.000000,4.000000,4.000000,4.000000,4.000000,4.000000,4.000000,4.000000,4.000000,4.000000,4.000000,4.000000,100.000000,,,,,,,,,,,,,,,,,16.000000,1.000000,0.710714,-0.100525,-0.694611,-0.047913,1.010025,-0.080568,0.011963,-24.075686,-96.153198,4.710460
1648680758.247507,1648680758.294194,65.000000,0.000000,4227.692383,4236.922852,4211.666504,4219.230957,4219.102539,4205.641113,4271.282227,4205.512695,4210.256348,4233.205078,4196.794922,4174.743652,4145.512695,4201.794922,3554.000000,3.000000,73.000000,,,,0.000000,4.000000,4.000000,4.000000,4.000000,4.000000,4.000000,4.000000,4.000000,4.000000,4.000000,4.000000,4.000000,4.000000,4.000000,100.000000,,,,,,,,,,,,,,,,,,,,,,,,,,,,
1648680758.255304,1648680758.302100,66.000000,1.000000,4231.153809,4240.000000,4213.809570,4221.721680,4223.424805,4210.091797,4274.908203,4207.966797,4212.216309,4233.717773,4199.450684,4176.996094,4146.190430,4204.651855,3575.000000,3.000000,73.000000,,,,0.000000,4.000000,4.000000,4.000000,4.000000,4.000000,4.000000,4.000000,4.000000,4.000000,4.000000,4.000000,4.000000,4.000000,4.000000,100.000000,,,,,,,,,,,,,,,,,,,,,,,,,,,,
1648680758.263101,1648680758.309907,67.000000,1.000000,4234.615234,4243.077148,4215.952148,4224.212402,4227.747070,4214.541992,4278.534668,4210.421387,4214.175781,4234.230957,4202.106445,4179.249023,4146.868164,4207.509277,3022.000000,3.000000,73.000000,,,,0.000000,4.000000,4.000000,4.000000,4.000000,4.000000,4.000000,4.000000,4.000000,4.000000,4.000000,4.000000,4.000000,4.000000,4.000000,100.000000,,,,,,,,,,,,,,,,,,,,,,,,,,,,
1648680758.270898,1648680758.317714,68.000000,1.000000,4238.077148,4246.153809,4218.095215,4226.703125,4232.069824,4218.992676,4282.161133,4212.875488,4216.135742,4234.743652,4204.761719,4181.501953,4147.545898,4210.366211,3611.000000,3.000000,73.000000,,,,0.000000,4.000000,4.000000,4.000000,4.000000,4.000000,4.000000,4.000000,4.000000,4.000000,4.000000,4.000000,4.000000,4.000000,4.000000,100.000000,,,,,,,,,,,,,,,,,17.000000,0.000000,0.710742,-0.099609,-0.694702,-0.048096,1.022477,-0.075196,0.016114,-24.075686,-95.255974,4.934768
1648680758.278695,1648680758.325520,69.000000,1.000000,4241.538574,4249.230957,4220.238281,4229.194336,4236.392090,4223.443359,4285.787598,4215.329590,4218.095215,4235.256348,4207.417480,4183.754395,4148.223633,4213.223633,3591.000000,3.000000,73.000000,,,,0.000000,4.000000,4.000000,4.000000,4.000000,4.000000,4.000000,4.000000,4.000000,4.000000,4.000000,4.000000,4.000000,4.000000,4.000000,100.000000,,,,,,,,,,,,,,,,,,,,,,,,,,,,
1648680758.286491,1648680758.333327,70.000000,1.000000,4245.000000,4252.307617,4222.380859,4231.685059,4240.714355,4227.893555,4289.414063,4217.783691,4220.055176,4235.769043,4210.073242,4186.007324,4148.900879,4216.080566,3386.000000,3.000000,73.000000,,,,0.000000,4.000000,4.000000,4.000000,4.000000,4.000000,4.000000,4.000000,4.000000,4.000000,4.000000,4.000000,4.000000,4.000000,4.000000,100.000000,,,,,,,,,,,,,,,,,,,,,,,,,,,,
1648680758.294288,1648680758.341133,71.000000,1.000000,4248.461426,4255.384766,4224.523926,4234.175781,4245.036621,4232.344238,4293.040527,4220.238281,4222.014648,4236.282227,4212.729004,4188.260254,4149.578613,4218.937500,3583.000000,3.000000,73.000000,,,,0.000000,4.000000,4.000000,4.000000,4.000000,4.000000,4.000000,4.000000,4.000000,4.000000,4.000000,4.000000,4.000000,4.000000,4.000000,100.000000,,,,,,,,,,,,,,,,,,,,,,,,,,,,
1648680758.302085,1648680758.348940,72.000000,0.000000,4251.922852,4258.461426,4226.666504,4236.666504,4249.358887,4236.794922,4296.666504,4222.692383,4223.974121,4236.794922,4215.384766,4190.512695,4150.256348,4221.794922,3535.000000,3.000000,73.000000,,,,0.000000,4.000000,4.000000,4.000000,4.000000,4.000000,4.000000,4.000000,4.000000,4.000000,4.000000,4.000000,4.000000,4.000000,4.000000,100.000000,,,,,,,,,,,,,,,,,18.000000,0.000000,0.710854,-0.100464,-0.694580,-0.046387,1.000992,-0.044923,0.003906,-25.122454,-96.900894,3.887999
1648680758.309882,1648680758.356746,73.000000,0.000000,4251.538574,4248.333496,4222.436035,4235.512695,4238.974121,4225.128418,4288.205078,4208.974121,4206.538574,4219.102539,4196.666504,4179.230957,4155.256348,4213.461426,3560.000000,3.000000,73.000000,,,,0.000000,4.000000,4.000000,4.000000,4.000000,4.000000,4.000000,4.000000,4.000000,4.000000,4.000000,4.000000,4.000000,4.000000,4.000000,100.000000,,,,,,,,,,,,,,,,,,,,,,,,,,,,
1648680758.317679,1648680758.364453,74.000000,0.000000,4246.282227,4254.871582,4221.153809,4234.358887,4232.563965,4216.153809,4283.974121,4202.179688,4208.461426,4207.948730,4202.179688,4172.179688,4125.000000,4210.256348,3561.000000,3.000000,73.000000,,,,0.000000,4.000000,4.000000,4.000000,4.000000,4.000000,4.000000,4.000000,4.000000,4.000000,4.000000,4.000000,4.000000,4.000000,4.000000,100.000000,,,,,,,,,,,,,,,,,,,,,,,,,,,,
1648680758.325475,1648680758.372259,75.000000,0.000000,4224.102539,4246.538574,4207.692383,4215.512695,4225.128418,4211.153809,4280.256348,4194.743652,4211.025879,4212.307617,4190.128418,4161.282227,4116.666504,4194.743652,3574.000000,3.000000,73.000000,,,,0.000000,4.000000,4.000000,4.000000,4.000000,4.000000,4.000000,4.000000,4.000000,4.000000,4.000000,4.000000,4.000000,4.000000,4.000000,100.000000,,,,,,,,,,,,,,,,,,,,,,,,,,,,
1648680758.333272,1648680758.379965,76.000000,0.000000,4206.282227,4222.692383,4196.538574,4196.153809,4229.743652,4220.512695,4292.820313,4201.794922,4214.358887,4225.000000,4180.512695,4165.256348,4151.153809,4195.897461,3585.000000,3.000000,73.000000,,,,0.000000,4.000000,4.000000,4.000000,4.000000,4.000000,4.000000,4.000000,4.000000,4.000000,4.000000,4.000000,4.000000,4.000000,4.000000,100.000000,,,,,,,,,,,,,,,,,19.000000,0.000000,0.710792,-0.099915,-0.694763,-0.045776,0.999039,-0.052735,0.009277,-23.926146,-96.452278,3.887999
1648680758.341069,1648680758.387772,77.000000,0.000000,4201.666504,4219.358887,4192.820313,4191.153809,4225.641113,4220.769043,4294.615234,4203.589844,4203.461426,4214.615234,4183.974121,4165.256348,4154.871582,4205.384766,3593.000000,3.000000,73.000000,,,,0.000000,4.000000,4.000000,4.000000,4.000000,4.000000,4.000000,4.000000,4.000000,4.000000,4.000000,4.000000,4.000000,4.000000,4.000000,100.000000,,,,,,,,,,,,,,,,,,,,,,,,,,,,
1648680758.348866,1648680758.395578,78.000000,0.000000,4227.948730,4251.025879,4216.025879,4221.666504,4233.077148,4224.230957,4295.256348,4206.922852,4205.641113,4217.948730,4190.128418,4172.307617,4174.102539,4220.769043,3561.000000,3.000000,73.000000,,,,0.000000,4.000000,4.000000,4.000000,4.000000,4.000000,4.000000,4.000000,4.000000,4.000000,4.000000,4.000000,4.000000,4.000000,4.000000,100.000000,,,,,,,,,,,,,,,,,,,,,,,,,,,,
1648680758.356663,1648680758.403284,79.000000,0.000000,4236.025879,4255.256348,4227.179688,4228.974121,4245.769043,4230.512695,4302.179688,4211.282227,4216.025879,4230.128418,4191.538574,4181.922852,4200.384766,4231.794922,3574.000000,3.000000,73.000000,,,,0.000000,4.000000,4.000000,4.000000,4.000000,4.000000,4.000000,4.000000,4.000000,4.000000,4.000000,4.000000,4.000000,4.000000,4.000000,100.000000,,,,,,,,,,,,,,,,,,,,,,,,,,,,
1648680758.364459,1648680758.411091,80.000000,0.000000,4226.794922,4250.256348,4226.153809,4218.846191,4260.000000,4243.077148,4316.538574,4228.333496,4226.922852,4237.051270,4213.333496,4195.256348,4193.717773,4243.205078,3585.000000,3.000000,73.000000,,,,0.000000,4.000000,4.000000,4.000000,4.000000,4.000000,4.000000,4.000000,4.000000,4.000000,4.000000,4.000000,4.000000,4.000000,4.000000,100.000000,,,,,,,,,,,,,,,,,20.000000,0.000000,0.710696,-0.100098,-0.694946,-0.044067,1.016617,-0.053712,0.009277,-25.870146,-96.153198,4.336614
1648680758.372256,1648680758.418797,81.000000,0.000000,4221.025879,4258.205078,4221.922852,4223.846191,4249.358887,4233.974121,4303.589844,4223.846191,4225.256348,4235.512695,4214.102539,4191.410156,4175.128418,4234.230957,3593.000000,3.000000,73.000000,,,,0.000000,4.000000,4.000000,4.000000,4.000000,4.000000,4.000000,4.000000,4.000000,4.000000,4.000000,4.000000,4.000000,4.000000,4.000000,100.000000,,,,,,,,,,,,,,,,,,,,,,,,,,,,
1648680758.380053,1648680758.426603,82.000000,0.000000,4228.974121,4262.820313,4223.205078,4234.871582,4241.282227,4224.871582,4293.589844,4206.410156,4221.538574,4239.358887,4199.358887,4184.871582,4178.205078,4229.102539,3561.000000,3.000000,73.000000,,,,0.000000,4.000000,4.000000,4.000000,4.000000,4.000000,4.000000,4.000000,4.000000,4.000000,4.000000,4.000000,4.000000,4.000000,4.000000,100.000000,,,,,,,,,,,,,,,,,,,,,,,,,,,,
1648680758.387850,1648680758.434310,83.000000,0.000000,4221.794922,4248.077148,4213.077148,4216.666504,4241.282227,4225.384766,4294.743652,4201.153809,4214.358887,4230.512695,4197.948730,4180.769043,4176.153809,4234.230957,3574.000000,3.000000,73.000000,,,,0.000000,4.000000,4.000000,4.000000,4.000000,4.000000,4.000000,4.000000,4.000000,4.000000,4.000000,4.000000,4.000000,4.000000,4.000000,100.000000,,,,,,,,,,,,,,,,,,,,,,,,,,,,
1648680758.395647,1648680758.442116,84.000000,0.000000,4216.153809,4246.538574,4204.743652,4211.410156,4239.871582,4221.922852,4289.615234,4203.077148,4208.205078,4218.589844,4198.717773,4175.769043,4167.436035,4232.563965,3585.000000,3.000000,73.000000,,,,0.000000,4.000000,4.000000,4.000000,4.000000,4.000000,4.000000,4.000000,4.000000,4.000000,4.000000,4.000000,4.000000,4.000000,4.000000,100.000000,,,,,,,,,,,,,,,,,21.000000,0.000000,0.710681,-0.100281,-0.695007,-0.042908,1.022477,-0.053223,0.020996,-26.019684,-96.302742,4.187076
1648680758.403443,1648680758.449822,85.000000,0.000000,4215.897461,4259.230957,4203.589844,4220.384766,4236.794922,4210.128418,4277.692383,4193.717773,4200.128418,4214.358887,4188.077148,4170.000000,4163.333496,4221.025879,3593.000000,3.000000,73.000000,,,,0.000000,4.000000,4.000000,4.000000,4.000000,4.000000,4.000000,4.000000,4.000000,4.000000,4.000000,4.000000,4.000000,4.000000,4.000000,100.000000,,,,,,,,,,,,,,,,,,,,,,,,,,,,
1648680758.411240,1648680758.457629,86.000000,0.000000,4210.128418,4257.820313,4197.948730,4210.256348,4231.794922,4207.692383,4274.230957,4186.922852,4195.512695,4210.000000,4188.461426,4167.179688,4166.666504,4220.897461,3561.000000,3.000000,73.000000,,,,0.000000,4.000000,4.000000,4.000000,4.000000,4.000000,4.000000,4.000000,4.000000,4.000000,4.000000,4.000000,4.000000,4.000000,4.000000,100.000000,,,,,,,,,,,,,,,,,,,,,,,,,,,,
1648680758.419037,1648680758.465435,87.000000,0.000000,4236.538574,4261.922852,4217.179688,4225.769043,4244.615234,4227.948730,4288.077148,4207.563965,4215.512695,4227.948730,4218.717773,4190.000000,4185.897461,4253.974121,3574.000000,3.000000,73.000000,,,,0.000000,4.000000,4.000000,4.000000,4.000000,4.000000,4.000000,4.000000,4.000000,4.000000,4.000000,4.000000,4.000000,4.000000,4.000000,100.000000,,,,,,,,,,,,,,,,,,,,,,,,,,,,
1648680758.426834,1648680758.473141,88.000000,0.000000,4254.871582,4272.179688,4232.948730,4242.820313,4254.230957,4234.487305,4292.820313,4217.948730,4225.769043,4244.743652,4227.692383,4203.333496,4187.051270,4271.666504,3585.000000,3.000000,73.000000,,,,0.000000,4.000000,4.000000,4.000000,4.000000,4.000000,4.000000,4.000000,4.000000,4.000000,4.000000,4.000000,4.000000,4.000000,4.000000,100.000000,,,,,,,,,,,,,,,,,22.000000,0.000000,0.710632,-0.100891,-0.695129,-0.040222,1.003433,-0.092287,0.017578,-25.571070,-97.499046,5.682460
1648680758.434631,1648680758.480848,89.000000,0.000000,4235.256348,4263.461426,4222.307617,4227.820313,4255.512695,4232.051270,4290.769043,4216.282227,4223.846191,4249.743652,4212.179688,4191.025879,4184.487305,4258.205078,3593.000000,3.000000,73.000000,,,,0.000000,4.000000,4.000000,4.000000,4.000000,4.000000,4.000000,4.000000,4.000000,4.000000,4.000000,4.000000,4.000000,4.000000,4.000000,100.000000,,,,,,,,,,,,,,,,,,,,,,,,,,,,
1648680758.442428,1648680758.488654,90.000000,0.000000,4208.077148,4245.256348,4198.846191,4203.974121,4250.384766,4228.974121,4287.051270,4210.769043,4223.077148,4240.000000,4195.641113,4171.282227,4198.717773,4236.666504,3561.000000,3.000000,73.000000,,,,0.000000,4.000000,4.000000,4.000000,4.000000,4.000000,4.000000,4.000000,4.000000,4.000000,4.000000,4.000000,4.000000,4.000000,4.000000,100.000000,,,,,,,,,,,,,,,,,,,,,,,,,,,,
1648680758.450224,1648680758.496460,91.000000,0.000000,4222.563965,4256.025879,4212.307617,4220.897461,4261.025879,4240.641113,4294.487305,4220.897461,4231.922852,4239.358887,4204.871582,4183.974121,4219.743652,4250.000000,3574.000000,3.000000,73.000000,,,,0.000000,4.000000,4.000000,4.000000,4.000000,4.000000,4.000000,4.000000,4.000000,4.000000,4.000000,4.000000,4.000000,4.000000,4.000000,100.000000,,,,,,,,,,,,,,,,,,,,,,,,,,,,
1648680758.458021,1648680758.504167,92.000000,0.000000,4223.205078,4248.461426,4216.666504,4221.153809,4250.512695,4228.333496,4282.436035,4217.563965,4217.948730,4220.256348,4198.077148,4181.025879,4186.666504,4251.666504,3585.000000,3.000000,73.000000,,,,0.000000,4.000000,4.000000,4.000000,4.000000,4.000000,4.000000,4.000000,4.000000,4.000000,4.000000,4.000000,4.000000,4.000000,4.000000,100.000000,,,,,,,,,,,,,,,,,23.000000,0.000000,0.710627,-0.101563,-0.695190,-0.037476,1.022477,-0.105470,0.020508,-23.327993,-98.097198,5.233844
1648680758.465818,1648680758.511973,93.000000,0.000000,4213.205078,4242.436035,4207.948730,4208.717773,4240.000000,4223.333496,4279.102539,4223.461426,4229.487305,4228.461426,4207.051270,4174.871582,4150.769043,4248.205078,3593.000000,3.000000,73.000000,,,,0.000000,4.000000,4.000000,4.000000,4.000000,4.000000,4.000000,4.000000,4.000000,4.000000,4.000000,4.000000,4.000000,4.000000,4.000000,100.000000,0.976563,58.333332,4.000000,4.000000,3.000000,4.000000,3.000000,4.000000,4.000000,4.000000,4.000000,4.000000,3.000000,4.000000,1.000000,4.000000,,,,,,,,,,,,
1648680758.473615,1648680758.519679,94.000000,0.000000,4220.769043,4258.846191,4211.538574,4211.794922,4244.871582,4231.666504,4284.102539,4228.077148,4244.743652,4257.051270,4219.743652,4187.179688,4182.948730,4260.256348,3561.000000,3.000000,73.000000,,,,0.000000,4.000000,4.000000,4.000000,4.000000,4.000000,4.000000,4.000000,4.000000,4.000000,4.000000,4.000000,4.000000,4.000000,4.000000,100.000000,,,,,,,,,,,,,,,,,,,,,,,,,,,,
1648680758.481412,1648680758.527385,95.000000,0.000000,4239.230957,4265.384766,4231.794922,4232.563965,4258.846191,4237.692383,4290.769043,4223.205078,4232.820313,4254.487305,4216.025879,4205.897461,4244.615234,4276.153809,3574.000000,3.000000,73.000000,,,,0.000000,4.000000,4.000000,4.000000,4.000000,4.000000,4.000000,4.000000,4.000000,4.000000,4.000000,4.000000,4.000000,4.000000,4.000000,100.000000,,,,,,,,,,,,,,,,,,,,,,,,,,,,
1648680758.489208,1648680758.535192,96.000000,0.000000,4238.077148,4249.615234,4228.846191,4235.897461,4253.205078,4224.487305,4286.153809,4210.769043,4212.179688,4221.922852,4213.589844,4198.974121,4217.051270,4267.051270,3585.000000,3.000000,73.000000,,,,0.000000,4.000000,4.000000,4.000000,4.000000,4.000000,4.000000,4.000000,4.000000,4.000000,4.000000,4.000000,4.000000,4.000000,4.000000,100.000000,,,,,,,,,,,,,,,,,24.000000,0.000000,0.710382,-0.101807,-0.695496,-0.035767,1.001480,-0.110842,0.025879,-25.421530,-97.648582,3.588922
1648680758.497005,1648680758.542898,97.000000,0.000000,4246.282227,4268.846191,4227.051270,4235.000000,4256.666504,4229.615234,4291.153809,4215.000000,4224.743652,4231.794922,4225.769043,4197.179688,4182.051270,4269.358887,3593.000000,3.000000,73.000000,,,,0.000000,4.000000,4.000000,4.000000,4.000000,4.000000,4.000000,4.000000,4.000000,4.000000,4.000000,4.000000,4.000000,4.000000,4.000000,100.000000,,,,,,,,,,,,,,,,,,,,,,,,,,,,
1648680758.504802,1648680758.550704,98.000000,0.000000,4242.307617,4277.179688,4228.846191,4233.205078,4263.461426,4236.666504,4294.743652,4225.128418,4241.153809,4256.922852,4204.615234,4194.358887,4228.589844,4274.102539,3561.000000,3.000000,73.000000,,,,0.000000,4.000000,4.000000,4.000000,4.000000,4.000000,4.000000,4.000000,4.000000,4.000000,4.000000,4.000000,4.000000,4.000000,4.000000,100.000000,,,,,,,,,,,,,,,,,,,,,,,,,,,,
1648680758.512599,1648680758.558411,99.000000,0.000000,4229.871582,4255.897461,4230.128418,4236.282227,4269.743652,4234.230957,4301.666504,4229.743652,4238.461426,4246.153809,4202.436035,4195.641113,4250.384766,4271.794922,3574.000000,3.000000,73.000000,,,,0.000000,4.000000,4.000000,4.000000,4.000000,4.000000,4.000000,4.000000,4.000000,4.000000,4.000000,4.000000,4.000000,4.000000,4.000000,100.000000,,,,,,,,,,,,,,,,,,,,,,,,,,,,
1648680758.520396,1648680758.566217,100.000000,0.000000,4235.512695,4250.384766,4232.820313,4233.717773,4269.871582,4238.461426,4303.974121,4222.948730,4226.282227,4232.436035,4240.000000,4204.743652,4188.461426,4270.128418,3585.000000,3.000000,73.000000,,,,0.000000,4.000000,4.000000,4.000000,4.000000,4.000000,4.000000,4.000000,4.000000,4.000000,4.000000,4.000000,4.000000,4.000000,4.000000,100.000000,,,,,,,,,,,,,,,,,25.000000,0.000000,0.709852,-0.101746,-0.696045,-0.035767,0.992203,-0.132326,0.014160,-25.271992,-97.050430,2.990768
1648680758.528192,1648680758.573923,101.000000,0.000000,4244.230957,4263.333496,4232.820313,4228.589844,4263.589844,4242.179688,4295.769043,4214.102539,4222.051270,4238.205078,4224.743652,4198.846191,4179.871582,4271.025879,3593.000000,3.000000,73.000000,,,,0.000000,4.000000,4.000000,4.000000,4.000000,4.000000,4.000000,4.000000,4.000000,4.000000,4.000000,4.000000,4.000000,4.000000,4.000000,100.000000,,,,,,,,,,,,,,,,,,,,,,,,,,,,
1648680758.535989,1648680758.581630,102.000000,0.000000,4241.410156,4268.589844,4234.230957,4237.436035,4263.333496,4237.563965,4298.205078,4218.974121,4231.538574,4243.333496,4183.205078,4192.051270,4244.615234,4273.717773,3561.000000,3.000000,73.000000,,,,0.000000,4.000000,4.000000,4.000000,4.000000,4.000000,4.000000,4.000000,4.000000,4.000000,4.000000,4.000000,4.000000,4.000000,4.000000,100.000000,,,,,,,,,,,,,,,,,,,,,,,,,,,,
1648680758.543786,1648680758.589436,103.000000,0.000000,4244.102539,4261.538574,4236.538574,4238.333496,4265.128418,4235.897461,4306.025879,4219.230957,4226.794922,4232.051270,4194.358887,4198.205078,4236.025879,4276.282227,3574.000000,3.000000,73.000000,,,,0.000000,4.000000,4.000000,4.000000,4.000000,4.000000,4.000000,4.000000,4.000000,4.000000,4.000000,4.000000,4.000000,4.000000,4.000000,100.000000,,,,,,,,,,,,,,,,,,,,,,,,,,,,
1648680758.551583,1648680758.597242,104.000000,0.000000,4253.717773,4262.307617,4239.358887,4232.051270,4270.256348,4246.538574,4308.205078,4225.512695,4226.153809,4235.256348,4219.615234,4210.897461,4212.179688,4286.025879,3585.000000,3.000000,73.000000,,,,0.000000,4.000000,4.000000,4.000000,4.000000,4.000000,4.000000,4.000000,4.000000,4.000000,4.000000,4.000000,4.000000,4.000000,4.000000,100.000000,,,,,,,,,,,,,,,,,26.000000,0.000000,0.709096,-0.101807,-0.696716,-0.037476,1.026383,-0.100099,-0.008301,-25.571070,-97.050430,2.990768
1648680758.559379,1648680758.604949,105.000000,0.000000,4236.282227,4274.743652,4230.000000,4230.512695,4264.358887,4242.436035,4300.000000,4232.820313,4232.820313,4241.922852,4204.102539,4202.179688,4239.871582,4278.717773,3593.000000,3.000000,73.000000,,,,0.000000,4.000000,4.000000,4.000000,4.000000,4.000000,4.000000,4.000000,4.000000,4.000000,4.000000,4.000000,4.000000,4.000000,4.000000,100.000000,,,,,,,,,,,,,,,,,,,,,,,,,,,,
1648680758.567176,1648680758.612755,106.000000,0.000000,4247.820313,4288.205078,4243.333496,4254.487305,4271.153809,4243.974121,4308.077148,4243.333496,4248.461426,4253.333496,4209.487305,4204.358887,4253.974121,4278.846191,3561.000000,3.000000,73.000000,,,,0.000000,4.000000,4.000000,4.000000,4.000000,4.000000,4.000000,4.000000,4.000000,4.000000,4.000000,4.000000,4.000000,4.000000,4.000000,100.000000,,,,,,,,,,,,,,,,,,,,,,,,,,,,
1648680758.574973,1648680758.620462,107.000000,0.000000,4266.922852,4275.641113,4248.589844,4253.846191,4276.025879,4247.948730,4312.563965,4243.589844,4250.000000,4257.051270,4222.692383,4209.743652,4219.358887,4282.307617,3574.000000,3.000000,73.000000,,,,0.000000,4.000000,4.000000,4.000000,4.000000,4.000000,4.000000,4.000000,4.000000,4.000000,4.000000,4.000000,4.000000,4.000000,4.000000,100.000000,,,,,,,,,,,,,,,,,,,,,,,,,,,,
1648680758.582770,1648680758.628268,108.000000,0.000000,4277.307617,4285.897461,4256.282227,4255.128418,4295.641113,4269.102539,4327.179688,4259.871582,4265.256348,4273.717773,4228.589844,4228.589844,4250.128418,4310.128418,3585.000000,3.000000,73.000000,,,,0.000000,4.000000,4.000000,4.000000,4.000000,4.000000,4.000000,4.000000,4.000000,4.000000,4.000000,4.000000,4.000000,4.000000,4.000000,100.000000,,,,,,,,,,,,,,,,,27.000000,0.000000,0.707760,-0.102051,-0.697937,-0.039307,1.004410,-0.071778,-0.008301,-25.122454,-97.199966,4.336614
1648680758.590567,1648680758.635974,109.000000,0.000000,4268.205078,4293.205078,4257.307617,4263.974121,4298.333496,4269.871582,4325.641113,4254.743652,4266.666504,4271.410156,4220.512695,4223.589844,4273.077148,4309.615234,3593.000000,3.000000,73.000000,,,,0.000000,4.000000,4.000000,4.000000,4.000000,4.000000,4.000000,4.000000,4.000000,4.000000,4.000000,4.000000,4.000000,4.000000,4.000000,100.000000,,,,,,,,,,,,,,,,,,,,,,,,,,,,
1648680758.598364,1648680758.643781,110.000000,0.000000,4255.512695,4268.077148,4249.102539,4259.358887,4288.846191,4260.128418,4318.077148,4249.615234,4260.000000,4261.282227,4224.487305,4210.897461,4234.358887,4287.692383,3561.000000,3.000000,73.000000,,,,0.000000,4.000000,4.000000,4.000000,4.000000,4.000000,4.000000,4.000000,4.000000,4.000000,4.000000,4.000000,4.000000,4.000000,4.000000,100.000000,,,,,,,,,,,,,,,,,,,,,,,,,,,,
1648680758.606160,1648680758.651487,111.000000,0.000000,4245.512695,4267.179688,4237.436035,4245.641113,4282.563965,4253.077148,4316.153809,4252.563965,4252.179688,4250.897461,4214.615234,4206.410156,4225.256348,4275.769043,3574.000000,3.000000,73.000000,,,,0.000000,4.000000,4.000000,4.000000,4.000000,4.000000,4.000000,4.000000,4.000000,4.000000,4.000000,4.000000,4.000000,4.000000,4.000000,100.000000,,,,,,,,,,,,,,,,,,,,,,,,,,,,
1648680758.613957,1648680758.659293,112.000000,0.000000,4251.282227,4309.358887,4244.230957,4260.128418,4290.512695,4258.846191,4321.666504,4251.922852,4250.769043,4251.282227,4199.230957,4205.512695,4259.230957,4279.487305,3585.000000,3.000000,73.000000,,,,0.000000,4.000000,4.000000,4.000000,4.000000,4.000000,4.000000,4.000000,4.000000,4.000000,4.000000,4.000000,4.000000,4.000000,4.000000,100.000000,,,,,,,,,,,,,,,,,28.000000,0.000000,0.706704,-0.102844,-0.698853,-0.039978,1.015640,-0.073732,0.001953,-24.225224,-96.153198,3.887999
1648680758.621754,1648680758.667000,113.000000,0.000000,4242.820313,4283.717773,4233.846191,4249.487305,4280.897461,4251.025879,4307.179688,4236.410156,4239.102539,4245.897461,4205.128418,4194.230957,4220.128418,4270.769043,3593.000000,3.000000,73.000000,,,,0.000000,4.000000,4.000000,4.000000,4.000000,4.000000,4.000000,4.000000,4.000000,4.000000,4.000000,4.000000,4.000000,4.000000,4.000000,100.000000,,,,,,,,,,,,,,,,,,,,,,,,,,,,
1648680758.629551,1648680758.674806,114.000000,0.000000,4233.974121,4246.666504,4220.000000,4224.871582,4272.179688,4245.000000,4302.436035,4233.589844,4232.820313,4242.948730,4222.563965,4195.000000,4165.512695,4264.871582,3561.000000,3.000000,73.000000,,,,0.000000,4.000000,4.000000,4.000000,4.000000,4.000000,4.000000,4.000000,4.000000,4.000000,4.000000,4.000000,4.000000,4.000000,4.000000,100.000000,,,,,,,,,,,,,,,,,,,,,,,,,,,,
1648680758.637348,1648680758.682512,115.000000,0.000000,4236.922852,4275.384766,4224.615234,4232.179688,4278.717773,4248.205078,4309.230957,4237.179688,4237.820313,4246.025879,4202.563965,4194.871582,4206.922852,4263.846191,3574.000000,3.000000,73.000000,,,,0.000000,4.000000,4.000000,4.000000,4.000000,4.000000,4.000000,4.000000,4.000000,4.000000,4.000000,4.000000,4.000000,4.000000,4.000000,100.000000,,,,,,,,,,,,,,,,,,,,,,,,,,,,
1648680758.645144,1648680758.690218,116.000000,0.000000,4244.230957,4294.358887,4233.717773,4249.743652,4288.974121,4255.769043,4311.666504,4239.102539,4241.153809,4252.692383,4180.128418,4191.538574,4274.230957,4262.563965,3585.000000,3.000000,73.000000,,,,0.000000,4.000000,4.000000,4.000000,4.000000,4.000000,4.000000,4.000000,4.000000,4.000000,4.000000,4.000000,4.000000,4.000000,4.000000,100.000000,,,,,,,,,,,,,,,,,29.000000,0.000000,0.706261,-0.103394,-0.699219,-0.039978,0.985855,-0.078614,-0.002441,-24.524300,-97.050430,4.934768
1648680758.652941,1648680758.698025,117.000000,0.000000,4248.846191,4267.563965,4237.692383,4245.512695,4296.794922,4265.641113,4314.871582,4252.051270,4250.641113,4260.256348,4207.051270,4207.307617,4250.897461,4276.282227,3593.000000,3.000000,73.000000,,,,0.000000,4.000000,4.000000,4.000000,4.000000,4.000000,4.000000,4.000000,4.000000,4.000000,4.000000,4.000000,4.000000,4.000000,4.000000,100.000000,,,,,,,,,,,,,,,,,,,,,,,,,,,,
1648680758.660738,1648680758.705831,118.000000,0.000000,4237.820313,4256.410156,4229.230957,4229.102539,4285.384766,4255.256348,4307.563965,4245.128418,4248.077148,4245.769043,4221.922852,4207.563965,4185.769043,4276.922852,3561.000000,3.000000,73.000000,,,,0.000000,4.000000,4.000000,4.000000,4.000000,4.000000,4.000000,4.000000,4.000000,4.000000,4.000000,4.000000,4.000000,4.000000,4.000000,100.000000,,,,,,,,,,,,,,,,,,,,,,,,,,,,
1648680758.668535,1648680758.713537,119.000000,0.000000,4230.641113,4273.846191,4225.512695,4230.641113,4274.743652,4248.077148,4304.102539,4241.410156,4245.641113,4244.358887,4206.153809,4196.410156,4198.205078,4263.846191,3574.000000,3.000000,73.000000,,,,0.000000,4.000000,4.000000,4.000000,4.000000,4.000000,4.000000,4.000000,4.000000,4.000000,4.000000,4.000000,4.000000,4.000000,4.000000,100.000000,,,,,,,,,,,,,,,,,,,,,,,,,,,,
1648680758.676332,1648680758.721343,120.000000,0.000000,4226.794922,4276.410156,4223.333496,4234.487305,4277.563965,4255.000000,4312.307617,4255.512695,4252.820313,4257.179688,4201.666504,4194.871582,4225.000000,4249.871582,3585.000000,3.000000,73.000000,,,,0.000000,4.000000,4.000000,4.000000,4.000000,4.000000,4.000000,4.000000,4.000000,4.000000,4.000000,4.000000,4.000000,4.000000,4.000000,100.000000,,,,,,,,,,,,,,,,,30.000000,0.000000,0.705552,-0.104675,-0.699768,-0.039551,1.017594,-0.069337,-0.019043,-26.019684,-97.499046,5.682460
1648680758.684128,1648680758.729049,121.000000,0.000000,4231.410156,4270.641113,4225.384766,4234.230957,4280.641113,4255.128418,4314.487305,4260.512695,4257.307617,4258.461426,4215.384766,4201.538574,4212.051270,4252.692383,3593.000000,3.000000,73.000000,,,,0.000000,4.000000,4.000000,4.000000,4.000000,4.000000,4.000000,4.000000,4.000000,4.000000,4.000000,4.000000,4.000000,4.000000,4.000000,100.000000,,,,,,,,,,,,,,,,,,,,,,,,,,,,
1648680758.691925,1648680758.736756,122.000000,0.000000,4226.282227,4251.922852,4213.333496,4211.794922,4256.410156,4227.307617,4290.000000,4229.743652,4230.256348,4234.871582,4204.743652,4189.615234,4200.769043,4253.846191,3561.000000,3.000000,73.000000,,,,0.000000,4.000000,4.000000,4.000000,4.000000,4.000000,4.000000,4.000000,4.000000,4.000000,4.000000,4.000000,4.000000,4.000000,4.000000,100.000000,,,,,,,,,,,,,,,,,,,,,,,,,,,,
1648680758.699722,1648680758.744562,123.000000,0.000000,4232.307617,4263.589844,4217.692383,4217.563965,4260.256348,4232.307617,4297.179688,4228.846191,4233.333496,4243.717773,4212.436035,4199.743652,4223.846191,4261.538574,3574.000000,3.000000,73.000000,,,,0.000000,4.000000,4.000000,4.000000,4.000000,4.000000,4.000000,4.000000,4.000000,4.000000,4.000000,4.000000,4.000000,4.000000,4.000000,100.000000,,,,,,,,,,,,,,,,,,,,,,,,,,,,
1648680758.707519,1648680758.752368,124.000000,0.000000,4234.102539,4279.871582,4224.230957,4232.051270,4272.563965,4246.538574,4313.205078,4240.256348,4249.102539,4255.641113,4226.538574,4208.974121,4231.794922,4261.153809,3585.000000,3.000000,73.000000,,,,0.000000,4.000000,4.000000,4.000000,4.000000,4.000000,4.000000,4.000000,4.000000,4.000000,4.000000,4.000000,4.000000,4.000000,4.000000,100.000000,,,,,,,,,,,,,,,,,31.000000,0.000000,0.704997,-0.105103,-0.700256,-0.039673,0.985367,-0.077638,-0.026856,-26.767376,-97.050430,3.738460
1648680758.715316,1648680758.760075,125.000000,0.000000,4251.282227,4276.922852,4235.641113,4237.948730,4275.897461,4250.641113,4315.384766,4243.846191,4251.410156,4256.538574,4238.846191,4215.641113,4234.871582,4271.922852,3593.000000,3.000000,73.000000,,,,0.000000,4.000000,4.000000,4.000000,4.000000,4.000000,4.000000,4.000000,4.000000,4.000000,4.000000,4.000000,4.000000,4.000000,4.000000,100.000000,,,,,,,,,,,,,,,,,,,,,,,,,,,,
1648680758.723112,1648680758.767781,126.000000,0.000000,4256.922852,4271.922852,4234.615234,4231.794922,4274.358887,4249.743652,4313.717773,4246.410156,4250.000000,4259.615234,4228.846191,4213.205078,4249.615234,4270.000000,3561.000000,3.000000,73.000000,,,,0.000000,4.000000,4.000000,4.000000,4.000000,4.000000,4.000000,4.000000,4.000000,4.000000,4.000000,4.000000,4.000000,4.000000,4.000000,100.000000,,,,,,,,,,,,,,,,,,,,,,,,,,,,
1648680758.730909,1648680758.775587,127.000000,0.000000,4245.384766,4279.615234,4235.897461,4236.410156,4287.051270,4263.461426,4330.256348,4262.563965,4265.000000,4277.692383,4230.000000,4218.077148,4255.641113,4263.846191,55.000000,3.000000,73.000000,,,,0.000000,4.000000,4.000000,4.000000,4.000000,4.000000,4.000000,4.000000,4.000000,4.000000,4.000000,4.000000,4.000000,4.000000,4.000000,100.000000,,,,,,,,,,,,,,,,,,,,,,,,,,,,
1648680758.738706,1648680758.783294,0.000000,0.000000,4235.769043,4269.102539,4233.717773,4234.743652,4280.000000,4254.102539,4322.307617,4255.128418,4256.794922,4265.128418,4240.128418,4215.128418,4217.307617,4260.641113,3564.000000,3.000000,73.000000,,,,0.000000,4.000000,4.000000,4.000000,4.000000,4.000000,4.000000,4.000000,4.000000,4.000000,4.000000,4.000000,4.000000,4.000000,4.000000,100.000000,,,,,,,,,,,,,,,,,0.000000,0.000000,0.704866,-0.104736,-0.700439,-0.039734,1.007828,-0.083497,-0.012207,-24.823378,-98.844894,3.738460
1648680758.746503,1648680758.791100,1.000000,0.000000,4235.256348,4258.589844,4223.077148,4225.000000,4269.487305,4236.922852,4301.922852,4239.743652,4242.948730,4245.641113,4231.282227,4198.974121,4196.666504,4253.077148,3554.000000,3.000000,73.000000,,,,0.000000,4.000000,4.000000,4.000000,4.000000,4.000000,4.000000,4.000000,4.000000,4.000000,4.000000,4.000000,4.000000,4.000000,4.000000,100.000000,,,,,,,,,,,,,,,,,,,,,,,,,,,,
1648680758.754300,1648680758.798806,2.000000,0.000000,4222.051270,4250.769043,4207.563965,4208.974121,4261.410156,4229.743652,4291.794922,4234.871582,4240.641113,4251.410156,4200.897461,4181.025879,4208.846191,4227.179688,3543.000000,3.000000,73.000000,,,,0.000000,4.000000,4.000000,4.000000,4.000000,4.000000,4.000000,4.000000,4.000000,4.000000,4.000000,4.000000,4.000000,4.000000,4.000000,100.000000,,,,,,,,,,,,,,,,,,,,,,,,,,,,
1648680758.762097,1648680758.806613,3.000000,0.000000,4216.410156,4253.333496,4208.974121,4205.641113,4255.128418,4229.743652,4294.102539,4237.307617,4243.589844,4258.717773,4193.205078,4183.205078,4214.871582,4218.846191,3014.000000,3.000000,73.000000,,,,0.000000,4.000000,4.000000,4.000000,4.000000,4.000000,4.000000,4.000000,4.000000,4.000000,4.000000,4.000000,4.000000,4.000000,4.000000,100.000000,,,,,,,,,,,,,,,,,,,,,,,,,,,,
1648680758.769893,1648680758.814319,4.000000,0.000000,4220.256348,4256.410156,4213.974121,4209.743652,4254.743652,4230.641113,4292.563965,4235.641113,4242.436035,4247.820313,4217.820313,4192.307617,4192.563965,4229.102539,3607.000000,3.000000,73.000000,,,,0.000000,4.000000,4.000000,4.000000,4.000000,4.000000,4.000000,4.000000,4.000000,4.000000,4.000000,4.000000,4.000000,4.000000,4.000000,100.000000,,,,,,,,,,,,,,,,,1.000000,0.000000,0.705126,-0.104736,-0.700195,-0.039429,1.012711,-0.086427,-0.002441,-25.122454,-97.648582,2.841230
1648680758.777690,1648680758.822125,5.000000,0.000000,4220.641113,4249.743652,4209.871582,4207.179688,4256.538574,4233.589844,4290.000000,4231.153809,4239.871582,4245.000000,4220.641113,4190.897461,4200.128418,4227.307617,3589.000000,3.000000,73.000000,,,,0.000000,4.000000,4.000000,4.000000,4.000000,4.000000,4.000000,4.000000,4.000000,4.000000,4.000000,4.000000,4.000000,4.000000,4.000000,100.000000,,,,,,,,,,,,,,,,,,,,,,,,,,,,
1648680758.785487,1648680758.829832,6.000000,0.000000,4231.922852,4254.230957,4220.000000,4213.589844,4264.102539,4243.077148,4297.563965,4244.743652,4254.358887,4263.974121,4205.769043,4195.512695,4231.538574,4227.692383,3386.000000,3.000000,73.000000,,,,0.000000,4.000000,4.000000,4.000000,4.000000,4.000000,4.000000,4.000000,4.000000,4.000000,4.000000,4.000000,4.000000,4.000000,4.000000,100.000000,,,,,,,,,,,,,,,,,,,,,,,,,,,,
1648680758.793284,1648680758.837638,7.000000,0.000000,4239.358887,4266.153809,4228.333496,4220.128418,4267.436035,4243.589844,4301.025879,4257.820313,4266.410156,4268.589844,4222.051270,4205.000000,4197.307617,4235.256348,3549.000000,3.000000,73.000000,,,,0.000000,4.000000,4.000000,4.000000,4.000000,4.000000,4.000000,4.000000,4.000000,4.000000,4.000000,4.000000,4.000000,4.000000,4.000000,100.000000,,,,,,,,,,,,,,,,,,,,,,,,,,,,
1648680758.801081,1648680758.845345,8.000000,0.000000,4237.307617,4260.512695,4228.974121,4221.410156,4270.000000,4242.563965,4298.205078,4258.205078,4267.436035,4270.641113,4251.922852,4217.820313,4179.358887,4246.666504,3544.000000,3.000000,73.000000,,,,0.000000,4.000000,4.000000,4.000000,4.000000,4.000000,4.000000,4.000000,4.000000,4.000000,4.000000,4.000000,4.000000,4.000000,4.000000,100.000000,,,,,,,,,,,,,,,,,2.000000,0.000000,0.705386,-0.104797,-0.699951,-0.038940,1.010269,-0.096193,-0.018555,-24.673838,-96.452278,3.887999
1648680758.808877,1648680758.853151,9.000000,0.000000,4228.846191,4243.077148,4217.179688,4210.256348,4261.282227,4231.153809,4277.948730,4234.230957,4244.871582,4254.871582,4219.871582,4204.230957,4214.358887,4232.692383,3572.000000,3.000000,73.000000,,,,0.000000,4.000000,4.000000,4.000000,4.000000,4.000000,4.000000,4.000000,4.000000,4.000000,4.000000,4.000000,4.000000,4.000000,4.000000,100.000000,,,,,,,,,,,,,,,,,,,,,,,,,,,,
1648680758.816674,1648680758.860857,10.000000,0.000000,4236.794922,4259.615234,4221.922852,4217.948730,4269.102539,4234.358887,4275.769043,4232.436035,4241.666504,4247.307617,4194.743652,4193.846191,4238.717773,4225.128418,3602.000000,3.000000,73.000000,,,,0.000000,4.000000,4.000000,4.000000,4.000000,4.000000,4.000000,4.000000,4.000000,4.000000,4.000000,4.000000,4.000000,4.000000,4.000000,100.000000,,,,,,,,,,,,,,,,,,,,,,,,,,,,
1648680758.824471,1648680758.868563,11.000000,0.000000,4235.256348,4263.846191,4221.538574,4217.436035,4270.128418,4235.512695,4277.179688,4240.897461,4246.025879,4245.256348,4216.153809,4197.820313,4196.153809,4224.102539,3575.000000,3.000000,73.000000,,,,0.000000,4.000000,4.000000,4.000000,4.000000,4.000000,4.000000,4.000000,4.000000,4.000000,4.000000,4.000000,4.000000,4.000000,4.000000,100.000000,,,,,,,,,,,,,,,,,,,,,,,,,,,,
1648680758.832268,1648680758.876370,12.000000,0.000000,4240.641113,4260.512695,4225.128418,4220.128418,4272.436035,4243.077148,4280.769043,4250.128418,4258.589844,4259.230957,4239.871582,4212.563965,4188.077148,4232.563965,3574.000000,3.000000,73.000000,,,,0.000000,4.000000,4.000000,4.000000,4.000000,4.000000,4.000000,4.000000,4.000000,4.000000,4.000000,4.000000,4.000000,4.000000,4.000000,100.000000,,,,,,,,,,,,,,,,,3.000000,0.000000,0.705563,-0.105347,-0.699707,-0.038635,0.996109,-0.086915,-0.006836,-24.823378,-96.751358,3.738460
1648680758.840065,1648680758.884076,13.000000,0.000000,4234.230957,4259.358887,4220.641113,4215.769043,4267.307617,4241.153809,4273.589844,4239.358887,4254.871582,4262.179688,4228.846191,4201.538574,4202.051270,4223.077148,3586.000000,3.000000,73.000000,,,,0.000000,4.000000,4.000000,4.000000,4.000000,4.000000,4.000000,4.000000,4.000000,4.000000,4.000000,4.000000,4.000000,4.000000,4.000000,100.000000,,,,,,,,,,,,,,,,,,,,,,,,,,,,
1648680758.847861,1648680758.891882,14.000000,0.000000,4238.333496,4263.974121,4226.153809,4220.256348,4271.922852,4249.615234,4280.897461,4241.922852,4252.692383,4261.025879,4228.077148,4201.410156,4207.563965,4225.000000,3602.000000,3.000000,73.000000,,,,0.000000,4.000000,4.000000,4.000000,4.000000,4.000000,4.000000,4.000000,4.000000,4.000000,4.000000,4.000000,4.000000,4.000000,4.000000,100.000000,,,,,,,,,,,,,,,,,,,,,,,,,,,,
1648680758.855658,1648680758.899589,15.000000,0.000000,4249.230957,4258.333496,4231.922852,4224.871582,4278.717773,4256.922852,4285.000000,4253.077148,4257.436035,4262.051270,4225.384766,4210.256348,4226.666504,4234.358887,3575.000000,3.000000,73.000000,,,,0.000000,4.000000,4.000000,4.000000,4.000000,4.000000,4.000000,4.000000,4.000000,4.000000,4.000000,4.000000,4.000000,4.000000,4.000000,100.000000,,,,,,,,,,,,,,,,,,,,,,,,,,,,
1648680758.863455,1648680758.907395,16.000000,0.000000,4255.256348,4258.461426,4237.820313,4232.436035,4281.922852,4256.538574,4282.563965,4256.282227,4261.153809,4268.333496,4230.256348,4218.589844,4238.717773,4238.974121,0.000000,3.000000,73.000000,,,,0.000000,4.000000,4.000000,4.000000,4.000000,4.000000,4.000000,4.000000,4.000000,4.000000,4.000000,4.000000,4.000000,4.000000,4.000000,100.000000,,,,,,,,,,,,,,,,,4.000000,0.000000,0.705719,-0.106567,-0.699402,-0.037964,1.012711,-0.097169,0.004883,-24.075686,-97.050430,3.738460
1648680758.871252,1648680758.915102,17.000000,0.000000,4242.820313,4258.461426,4229.230957,4225.128418,4270.128418,4246.410156,4276.666504,4250.000000,4254.230957,4260.000000,4232.179688,4211.666504,4219.102539,4223.846191,0.000000,3.000000,73.000000,,,,0.000000,4.000000,4.000000,4.000000,4.000000,4.000000,4.000000,4.000000,4.000000,4.000000,4.000000,4.000000,4.000000,4.000000,4.000000,100.000000,,,,,,,,,,,,,,,,,,,,,,,,,,,,
1648680758.879049,1648680758.922908,18.000000,0.000000,4242.692383,4257.692383,4223.717773,4216.794922,4268.333496,4248.846191,4277.563965,4252.436035,4255.512695,4252.948730,4229.615234,4204.743652,4195.128418,4215.128418,0.000000,3.000000,73.000000,,,,0.000000,4.000000,4.000000,4.000000,4.000000,4.000000,4.000000,4.000000,4.000000,4.000000,4.000000,4.000000,4.000000,4.000000,4.000000,100.000000,,,,,,,,,,,,,,,,,,,,,,,,,,,,
1648680758.886845,1648680758.930614,19.000000,0.000000,4245.641113,4244.615234,4223.589844,4211.153809,4269.487305,4250.641113,4272.820313,4248.077148,4255.384766,4253.589844,4222.948730,4201.922852,4190.000000,4217.436035,0.000000,3.000000,73.000000,,,,0.000000,4.000000,4.000000,4.000000,4.000000,4.000000,4.000000,4.000000,4.000000,4.000000,4.000000,4.000000,4.000000,4.000000,4.000000,100.000000,,,,,,,,,,,,,,,,,,,,,,,,,,,,
1648680758.894642,1648680758.938321,20.000000,0.000000,4233.205078,4239.615234,4220.256348,4206.282227,4263.205078,4240.641113,4267.948730,4231.922852,4240.769043,4247.563965,4208.205078,4195.641113,4216.410156,4213.589844,0.000000,3.000000,73.000000,,,,0.000000,4.000000,4.000000,4.000000,4.000000,4.000000,4.000000,4.000000,4.000000,4.000000,4.000000,4.000000,4.000000,4.000000,4.000000,100.000000,,,,,,,,,,,,,,,,,5.000000,0.000000,0.705835,-0.107422,-0.699158,-0.037903,0.994644,-0.122072,0.007324,-26.019684,-97.499046,4.187076
1648680758.902439,1648680758.946127,21.000000,0.000000,4232.563965,4256.025879,4223.333496,4217.948730,4266.025879,4239.743652,4271.666504,4229.102539,4234.743652,4241.794922,4206.282227,4195.256348,4220.512695,4211.410156,0.000000,3.000000,73.000000,,,,0.000000,4.000000,4.000000,4.000000,4.000000,4.000000,4.000000,4.000000,4.000000,4.000000,4.000000,4.000000,4.000000,4.000000,4.000000,100.000000,,,,,,,,,,,,,,,,,,,,,,,,,,,,
1648680758.910236,1648680758.953933,22.000000,0.000000,4232.436035,4255.128418,4217.948730,4215.128418,4265.384766,4238.974121,4266.538574,4228.589844,4232.051270,4234.615234,4210.128418,4189.615234,4176.025879,4206.282227,0.000000,3.000000,73.000000,,,,0.000000,4.000000,4.000000,4.000000,4.000000,4.000000,4.000000,4.000000,4.000000,4.000000,4.000000,4.000000,4.000000,4.000000,4.000000,100.000000,,,,,,,,,,,,,,,,,,,,,,,,,,,,
1648680758.918033,1648680758.961640,23.000000,0.000000,4230.641113,4242.179688,4214.743652,4206.538574,4263.461426,4240.128418,4265.256348,4238.846191,4239.743652,4237.563965,4210.641113,4189.358887,4175.512695,4204.871582,0.000000,3.000000,73.000000,,,,0.000000,4.000000,4.000000,4.000000,4.000000,4.000000,4.000000,4.000000,4.000000,4.000000,4.000000,4.000000,4.000000,4.000000,4.000000,100.000000,,,,,,,,,,,,,,,,,,,,,,,,,,,,
1648680758.925830,1648680758.969446,24.000000,0.000000,4230.897461,4247.307617,4220.512695,4213.974121,4264.743652,4244.871582,4271.666504,4251.282227,4254.615234,4251.538574,4214.743652,4195.000000,4200.641113,4207.051270,0.000000,3.000000,73.000000,,,,0.000000,4.000000,4.000000,4.000000,4.000000,4.000000,4.000000,4.000000,4.000000,4.000000,4.000000,4.000000,4.000000,4.000000,4.000000,100.000000,,,,,,,,,,,,,,,,,6.000000,0.000000,0.706345,-0.109131,-0.698364,-0.038147,1.008316,-0.108400,0.016602,-24.524300,-96.751358,4.187076
1648680758.933626,1648680758.977152,25.000000,0.000000,4241.538574,4264.358887,4233.589844,4229.358887,4272.051270,4252.820313,4274.871582,4257.563965,4268.333496,4266.025879,4232.179688,4205.256348,4188.974121,4220.641113,0.000000,3.000000,73.000000,,,,0.000000,4.000000,4.000000,4.000000,4.000000,4.000000,4.000000,4.000000,4.000000,4.000000,4.000000,4.000000,4.000000,4.000000,4.000000,100.000000,,,,,,,,,,,,,,,,,,,,,,,,,,,,
1648680758.941423,1648680758.984959,26.000000,0.000000,4235.897461,4257.820313,4219.743652,4215.128418,4258.846191,4239.487305,4257.179688,4238.333496,4252.436035,4246.538574,4208.589844,4188.717773,4189.358887,4211.153809,0.000000,3.000000,73.000000,,,,0.000000,4.000000,4.000000,4.000000,4.000000,4.000000,4.000000,4.000000,4.000000,4.000000,4.000000,4.000000,4.000000,4.000000,4.000000,100.000000,,,,,,,,,,,,,,,,,,,,,,,,,,,,
1648680758.949220,1648680758.992665,27.000000,0.000000,4242.948730,4259.358887,4223.846191,4221.410156,4268.205078,4245.256348,4263.077148,4240.512695,4252.820313,4254.871582,4211.410156,4196.666504,4220.641113,4213.205078,0.000000,3.000000,73.000000,,,,0.000000,4.000000,4.000000,4.000000,4.000000,4.000000,4.000000,4.000000,4.000000,4.000000,4.000000,4.000000,4.000000,4.000000,4.000000,100.000000,,,,,,,,,,,,,,,,,,,,,,,,,,,,
1648680758.957017,1648680759.000471,28.000000,0.000000,4248.461426,4256.538574,4235.897461,4232.051270,4273.205078,4248.205078,4266.410156,4244.615234,4252.948730,4264.230957,4238.717773,4210.256348,4193.589844,4220.000000,0.000000,3.000000,73.000000,,,,0.000000,4.000000,4.000000,4.000000,4.000000,4.000000,4.000000,4.000000,4.000000,4.000000,4.000000,4.000000,4.000000,4.000000,4.000000,100.000000,,,,,,,,,,,,,,,,,7.000000,0.000000,0.706660,-0.110596,-0.697754,-0.039246,1.003433,-0.090333,0.022461,-25.122454,-96.153198,4.635691
1648680758.964814,1648680759.008178,29.000000,0.000000,4251.538574,4252.051270,4239.615234,4229.871582,4266.025879,4239.358887,4256.666504,4240.256348,4247.563965,4247.436035,4227.179688,4205.512695,4195.000000,4219.615234,0.000000,3.000000,73.000000,,,,0.000000,4.000000,4.000000,4.000000,4.000000,4.000000,4.000000,4.000000,4.000000,4.000000,4.000000,4.000000,4.000000,4.000000,4.000000,100.000000,0.976563,58.333332,4.000000,4.000000,4.000000,4.000000,3.000000,4.000000,3.000000,4.000000,4.000000,4.000000,3.000000,4.000000,1.000000,4.000000,,,,,,,,,,,,
1648680758.972610,1648680759.015984,30.000000,0.000000,4250.897461,4251.282227,4235.897461,4225.128418,4262.051270,4233.333496,4246.922852,4231.922852,4241.282227,4237.436035,4198.461426,4198.589844,4240.384766,4214.743652,0.000000,3.000000,73.000000,,,,0.000000,4.000000,4.000000,4.000000,4.000000,4.000000,4.000000,4.000000,4.000000,4.000000,4.000000,4.000000,4.000000,4.000000,4.000000,100.000000,,,,,,,,,,,,,,,,,,,,,,,,,,,,
1648680758.980407,1648680759.023691,31.000000,0.000000,4253.846191,4261.153809,4242.820313,4234.743652,4273.333496,4249.102539,4259.871582,4245.641113,4251.922852,4260.256348,4226.410156,4214.102539,4234.102539,4222.563965,0.000000,3.000000,73.000000,,,,0.000000,4.000000,4.000000,4.000000,4.000000,4.000000,4.000000,4.000000,4.000000,4.000000,4.000000,4.000000,4.000000,4.000000,4.000000,100.000000,,,,,,,,,,,,,,,,,,,,,,,,,,,,
1648680758.988204,1648680759.031397,32.000000,0.000000,4250.897461,4258.589844,4239.615234,4228.717773,4268.717773,4248.846191,4260.128418,4254.358887,4258.333496,4262.948730,4248.461426,4215.128418,4184.487305,4222.307617,0.000000,3.000000,73.000000,,,,0.000000,4.000000,4.000000,4.000000,4.000000,4.000000,4.000000,4.000000,4.000000,4.000000,4.000000,4.000000,4.000000,4.000000,4.000000,100.000000,,,,,,,,,,,,,,,,,8.000000,0.000000,0.706753,-0.111389,-0.697449,-0.040710,1.007340,-0.093751,0.011719,-24.823378,-97.798126,3.439384
1648680758.996001,1648680759.039203,33.000000,0.000000,4258.333496,4254.871582,4239.358887,4224.615234,4267.179688,4243.846191,4253.077148,4249.615234,4257.563965,4256.282227,4233.717773,4209.615234,4188.717773,4225.897461,0.000000,3.000000,73.000000,,,,0.000000,4.000000,4.000000,4.000000,4.000000,4.000000,4.000000,4.000000,4.000000,4.000000,4.000000,4.000000,4.000000,4.000000,4.000000,100.000000,,,,,,,,,,,,,,,,,,,,,,,,,,,,
1648680759.003797,1648680759.047010,34.000000,0.000000,4253.974121,4254.487305,4241.538574,4225.384766,4270.641113,4243.717773,4248.974121,4240.384766,4248.717773,4256.922852,4222.307617,4208.333496,4213.205078,4226.410156,0.000000,3.000000,73.000000,,,,0.000000,4.000000,4.000000,4.000000,4.000000,4.000000,4.000000,4.000000,4.000000,4.000000,4.000000,4.000000,4.000000,4.000000,4.000000,100.000000,,,,,,,,,,,,,,,,,,,,,,,,,,,,
1648680759.011594,1648680759.054716,35.000000,0.000000,4241.794922,4253.717773,4236.410156,4221.282227,4270.256348,4248.333496,4254.487305,4246.153809,4249.615234,4254.615234,4221.922852,4205.000000,4216.794922,4218.205078,0.000000,3.000000,73.000000,,,,0.000000,4.000000,4.000000,4.000000,4.000000,4.000000,4.000000,4.000000,4.000000,4.000000,4.000000,4.000000,4.000000,4.000000,4.000000,100.000000,,,,,,,,,,,,,,,,,,,,,,,,,,,,
1648680759.019391,1648680759.062522,36.000000,0.000000,4241.025879,4248.205078,4228.717773,4217.692383,4271.153809,4253.333496,4257.307617,4261.666504,4265.769043,4255.128418,4219.487305,4204.358887,4226.025879,4212.563965,0.000000,3.000000,73.000000,,,,0.000000,4.000000,4.000000,4.000000,4.000000,4.000000,4.000000,4.000000,4.000000,4.000000,4.000000,4.000000,4.000000,4.000000,4.000000,100.000000,,,,,,,,,,,,,,,,,9.000000,0.000000,0.706669,-0.111450,-0.697449,-0.041992,1.014176,-0.079591,0.009277,-23.926146,-98.396278,3.588922
1648680759.027188,1648680759.070229,37.000000,0.000000,4242.307617,4250.256348,4226.922852,4221.922852,4268.974121,4248.589844,4248.077148,4253.077148,4258.589844,4249.871582,4217.563965,4200.512695,4217.692383,4207.820313,0.000000,3.000000,73.000000,,,,0.000000,4.000000,4.000000,4.000000,4.000000,4.000000,4.000000,4.000000,4.000000,4.000000,4.000000,4.000000,4.000000,4.000000,4.000000,100.000000,,,,,,,,,,,,,,,,,,,,,,,,,,,,
1648680759.034985,1648680759.078035,38.000000,0.000000,4250.512695,4257.820313,4239.102539,4232.820313,4271.025879,4247.948730,4250.000000,4245.897461,4251.666504,4254.743652,4233.589844,4209.615234,4184.102539,4219.487305,0.000000,3.000000,73.000000,,,,0.000000,4.000000,4.000000,4.000000,4.000000,4.000000,4.000000,4.000000,4.000000,4.000000,4.000000,4.000000,4.000000,4.000000,4.000000,100.000000,,,,,,,,,,,,,,,,,,,,,,,,,,,,
1648680759.042781,1648680759.085841,39.000000,0.000000,4256.666504,4255.384766,4244.102539,4229.743652,4270.897461,4246.538574,4254.615234,4252.948730,4263.461426,4264.230957,4246.410156,4223.589844,4180.897461,4231.922852,0.000000,3.000000,73.000000,,,,0.000000,4.000000,4.000000,4.000000,4.000000,4.000000,4.000000,4.000000,4.000000,4.000000,4.000000,4.000000,4.000000,4.000000,4.000000,100.000000,,,,,,,,,,,,,,,,,,,,,,,,,,,,
1648680759.050578,1648680759.093548,40.000000,0.000000,4260.641113,4258.333496,4244.743652,4228.717773,4269.871582,4247.692383,4255.256348,4261.282227,4272.307617,4269.230957,4245.897461,4222.948730,4225.384766,4231.666504,0.000000,3.000000,73.000000,,,,0.000000,4.000000,4.000000,4.000000,4.000000,4.000000,4.000000,4.000000,4.000000,4.000000,4.000000,4.000000,4.000000,4.000000,4.000000,100.000000,,,,,,,,,,,,,,,,,10.000000,0.000000,0.706482,-0.111328,-0.697632,-0.042419,1.017105,-0.073732,0.000977,-24.673838,-97.648582,5.383383
1648680759.058375,1648680759.101254,41.000000,0.000000,4250.384766,4258.846191,4234.487305,4223.846191,4260.641113,4239.358887,4240.512695,4242.051270,4252.051270,4249.743652,4224.230957,4200.512695,4226.922852,4212.692383,0.000000,3.000000,73.000000,,,,0.000000,4.000000,4.000000,4.000000,4.000000,4.000000,4.000000,4.000000,4.000000,4.000000,4.000000,4.000000,4.000000,4.000000,4.000000,100.000000,,,,,,,,,,,,,,,,,,,,,,,,,,,,
1648680759.066172,1648680759.109060,42.000000,0.000000,4256.794922,4264.743652,4241.922852,4233.333496,4270.128418,4244.358887,4240.256348,4240.769043,4254.358887,4249.102539,4232.692383,4207.436035,4198.077148,4218.846191,0.000000,3.000000,73.000000,,,,0.000000,4.000000,4.000000,4.000000,4.000000,4.000000,4.000000,4.000000,4.000000,4.000000,4.000000,4.000000,4.000000,4.000000,4.000000,100.000000,,,,,,,,,,,,,,,,,,,,,,,,,,,,
1648680759.073969,1648680759.116767,43.000000,0.000000,4255.128418,4252.820313,4239.871582,4231.922852,4268.589844,4240.512695,4237.948730,4242.179688,4258.846191,4252.948730,4245.256348,4212.307617,4185.512695,4220.641113,0.000000,3.000000,73.000000,,,,0.000000,4.000000,4.000000,4.000000,4.000000,4.000000,4.000000,4.000000,4.000000,4.000000,4.000000,4.000000,4.000000,4.000000,4.000000,100.000000,,,,,,,,,,,,,,,,,,,,,,,,,,,,
1648680759.081766,1648680759.124673,44.000000,0.000000,4260.000000,4254.102539,4241.410156,4234.487305,4273.077148,4247.820313,4244.358887,4245.512695,4259.487305,4262.051270,4239.102539,4211.538574,4215.897461,4222.307617,0.000000,3.000000,73.000000,,,,0.000000,4.000000,4.000000,4.000000,4.000000,4.000000,4.000000,4.000000,4.000000,4.000000,4.000000,4.000000,4.000000,4.000000,4.000000,100.000000,,,,,,,,,,,,,,,,,11.000000,0.000000,0.706132,-0.110962,-0.698059,-0.042175,1.011246,-0.097169,0.010254,-24.823378,-96.003662,4.187076
1648680759.089562,1648680759.132479,45.000000,0.000000,4260.128418,4260.128418,4237.820313,4230.128418,4270.128418,4247.948730,4241.025879,4240.000000,4248.846191,4255.128418,4215.384766,4204.358887,4218.205078,4217.692383,0.000000,3.000000,73.000000,,,,0.000000,4.000000,4.000000,4.000000,4.000000,4.000000,4.000000,4.000000,4.000000,4.000000,4.000000,4.000000,4.000000,4.000000,4.000000,100.000000,,,,,,,,,,,,,,,,,,,,,,,,,,,,
1648680759.097359,1648680759.140286,46.000000,0.000000,4256.410156,4254.743652,4237.692383,4228.077148,4264.743652,4245.256348,4238.974121,4242.051270,4248.589844,4248.205078,4225.256348,4208.717773,4197.179688,4218.205078,0.000000,3.000000,73.000000,,,,0.000000,4.000000,4.000000,4.000000,4.000000,4.000000,4.000000,4.000000,4.000000,4.000000,4.000000,4.000000,4.000000,4.000000,4.000000,100.000000,,,,,,,,,,,,,,,,,,,,,,,,,,,,
1648680759.105156,1648680759.148092,47.000000,0.000000,4252.179688,4243.461426,4238.846191,4229.102539,4268.717773,4249.743652,4244.102539,4255.641113,4261.410156,4255.512695,4245.000000,4215.769043,4206.794922,4223.846191,0.000000,3.000000,73.000000,,,,0.000000,4.000000,4.000000,4.000000,4.000000,4.000000,4.000000,4.000000,4.000000,4.000000,4.000000,4.000000,4.000000,4.000000,4.000000,100.000000,,,,,,,,,,,,,,,,,,,,,,,,,,,,
1648680759.112953,1648680759.155798,48.000000,0.000000,4262.820313,4258.461426,4250.384766,4240.769043,4287.436035,4266.538574,4256.922852,4275.897461,4283.205078,4271.666504,4244.743652,4225.769043,4251.538574,4234.743652,0.000000,3.000000,73.000000,,,,0.000000,4.000000,4.000000,4.000000,4.000000,4.000000,4.000000,4.000000,4.000000,4.000000,4.000000,4.000000,4.000000,4.000000,4.000000,100.000000,,,,,,,,,,,,,,,,,12.000000,0.000000,0.705721,-0.110962,-0.698547,-0.040955,1.022477,-0.082033,0.001953,-24.823378,-98.545815,3.439384
1648680759.120750,1648680759.163505,49.000000,0.000000,4262.948730,4262.436035,4249.743652,4236.666504,4280.897461,4264.102539,4251.922852,4272.563965,4279.871582,4266.153809,4234.615234,4220.897461,4244.615234,4228.589844,0.000000,3.000000,73.000000,,,,0.000000,4.000000,4.000000,4.000000,4.000000,4.000000,4.000000,4.000000,4.000000,4.000000,4.000000,4.000000,4.000000,4.000000,4.000000,100.000000,,,,,,,,,,,,,,,,,,,,,,,,,,,,
1648680759.128546,1648680759.171311,50.000000,0.000000,4265.769043,4256.025879,4245.256348,4228.974121,4269.230957,4255.512695,4243.846191,4260.384766,4267.563965,4258.333496,4251.025879,4220.512695,4193.846191,4228.717773,0.000000,3.000000,73.000000,,,,0.000000,4.000000,4.000000,4.000000,4.000000,4.000000,4.000000,4.000000,4.000000,4.000000,4.000000,4.000000,4.000000,4.000000,4.000000,100.000000,,,,,,,,,,,,,,,,,,,,,,,,,,,,
1648680759.136343,1648680759.179017,51.000000,0.000000,4276.794922,4259.871582,4249.871582,4236.666504,4274.230957,4254.871582,4242.307617,4257.563965,4266.538574,4258.589844,4264.230957,4229.615234,4184.743652,4240.897461,0.000000,3.000000,73.000000,,,,0.000000,4.000000,4.000000,4.000000,4.000000,4.000000,4.000000,4.000000,4.000000,4.000000,4.000000,4.000000,4.000000,4.000000,4.000000,100.000000,,,,,,,,,,,,,,,,,,,,,,,,,,,,
1648680759.144140,1648680759.186824,52.000000,0.000000,4265.769043,4258.589844,4241.794922,4237.692383,4274.871582,4250.897461,4239.487305,4249.743652,4257.307617,4247.820313,4237.563965,4216.410156,4219.102539,4231.538574,0.000000,3.000000,73.000000,,,,0.000000,4.000000,4.000000,4.000000,4.000000,4.000000,4.000000,4.000000,4.000000,4.000000,4.000000,4.000000,4.000000,4.000000,4.000000,100.000000,,,,,,,,,,,,,,,,,13.000000,0.000000,0.705265,-0.110779,-0.699097,-0.039917,1.028824,-0.086915,-0.004395,-25.421530,-96.900894,3.289845
1648680759.151937,1648680759.194530,53.000000,0.000000,4259.615234,4255.641113,4235.641113,4236.153809,4275.000000,4251.794922,4236.153809,4250.000000,4257.307617,4247.051270,4230.000000,4208.589844,4236.538574,4224.615234,0.000000,3.000000,73.000000,,,,0.000000,4.000000,4.000000,4.000000,4.000000,4.000000,4.000000,4.000000,4.000000,4.000000,4.000000,4.000000,4.000000,4.000000,4.000000,100.000000,,,,,,,,,,,,,,,,,,,,,,,,,,,,
1648680759.159734,1648680759.202236,54.000000,0.000000,4267.307617,4257.820313,4239.615234,4236.410156,4272.307617,4251.666504,4231.153809,4250.897461,4257.948730,4252.563965,4246.153809,4211.666504,4213.846191,4226.410156,0.000000,3.000000,73.000000,,,,0.000000,4.000000,4.000000,4.000000,4.000000,4.000000,4.000000,4.000000,4.000000,4.000000,4.000000,4.000000,4.000000,4.000000,4.000000,100.000000,,,,,,,,,,,,,,,,,,,,,,,,,,,,
1648680759.167530,1648680759.210043,55.000000,0.000000,4267.820313,4254.230957,4245.256348,4238.846191,4272.563965,4254.102539,4235.512695,4252.563965,4250.769043,4251.282227,4242.436035,4212.179688,4217.563965,4226.025879,0.000000,3.000000,73.000000,,,,0.000000,4.000000,4.000000,4.000000,4.000000,4.000000,4.000000,4.000000,4.000000,4.000000,4.000000,4.000000,4.000000,4.000000,4.000000,100.000000,,,,,,,,,,,,,,,,,,,,,,,,,,,,
1648680759.175327,1648680759.217749,56.000000,0.000000,4256.153809,4248.717773,4240.000000,4232.948730,4271.282227,4248.205078,4234.358887,4251.538574,4241.410156,4241.538574,4230.128418,4205.000000,4216.666504,4221.922852,0.000000,3.000000,73.000000,,,,0.000000,4.000000,4.000000,4.000000,4.000000,4.000000,4.000000,4.000000,4.000000,4.000000,4.000000,4.000000,4.000000,4.000000,4.000000,100.000000,,,,,,,,,,,,,,,,,14.000000,0.000000,0.704888,-0.110657,-0.699524,-0.039429,1.000015,-0.075685,-0.003418,-24.673838,-96.452278,3.887999
1648680759.183124,1648680759.225555,57.000000,0.000000,4268.589844,4264.487305,4251.153809,4243.589844,4279.358887,4251.666504,4236.666504,4260.256348,4258.461426,4253.717773,4260.897461,4221.922852,4182.948730,4238.717773,0.000000,3.000000,73.000000,,,,0.000000,4.000000,4.000000,4.000000,4.000000,4.000000,4.000000,4.000000,4.000000,4.000000,4.000000,4.000000,4.000000,4.000000,4.000000,100.000000,,,,,,,,,,,,,,,,,,,,,,,,,,,,
1648680759.190921,1648680759.233362,58.000000,0.000000,4269.743652,4264.102539,4252.179688,4245.897461,4272.692383,4247.820313,4229.743652,4249.615234,4256.794922,4249.743652,4262.307617,4222.563965,4188.333496,4235.256348,0.000000,3.000000,73.000000,,,,0.000000,4.000000,4.000000,4.000000,4.000000,4.000000,4.000000,4.000000,4.000000,4.000000,4.000000,4.000000,4.000000,4.000000,4.000000,100.000000,,,,,,,,,,,,,,,,,,,,,,,,,,,,
1648680759.198718,1648680759.241068,59.000000,0.000000,4268.333496,4258.589844,4253.461426,4248.077148,4277.692383,4252.051270,4235.256348,4250.897461,4259.102539,4255.000000,4240.512695,4218.589844,4264.871582,4232.436035,0.000000,3.000000,73.000000,,,,0.000000,4.000000,4.000000,4.000000,4.000000,4.000000,4.000000,4.000000,4.000000,4.000000,4.000000,4.000000,4.000000,4.000000,4.000000,100.000000,,,,,,,,,,,,,,,,,,,,,,,,,,,,
1648680759.206514,1648680759.248874,60.000000,0.000000,4262.179688,4246.282227,4245.128418,4235.897461,4272.436035,4244.230957,4230.512695,4249.871582,4260.000000,4258.846191,4239.487305,4214.615234,4254.615234,4230.641113,0.000000,3.000000,73.000000,,,,0.000000,4.000000,4.000000,4.000000,4.000000,4.000000,4.000000,4.000000,4.000000,4.000000,4.000000,4.000000,4.000000,4.000000,4.000000,100.000000,,,,,,,,,,,,,,,,,15.000000,0.000000,0.703977,-0.110107,-0.700562,-0.038818,1.007340,-0.069337,-0.017090,-26.468300,-97.050430,2.691691
1648680759.214311,1648680759.256581,61.000000,0.000000,4258.717773,4240.512695,4238.974121,4226.025879,4264.615234,4238.846191,4229.102539,4246.025879,4254.615234,4251.025879,4252.051270,4216.538574,4202.563965,4232.051270,0.000000,3.000000,73.000000,,,,0.000000,4.000000,4.000000,4.000000,4.000000,4.000000,4.000000,4.000000,4.000000,4.000000,4.000000,4.000000,4.000000,4.000000,4.000000,100.000000,,,,,,,,,,,,,,,,,,,,,,,,,,,,
1648680759.222108,1648680759.264287,62.000000,0.000000,4256.410156,4243.205078,4236.153809,4226.794922,4266.538574,4241.282227,4232.948730,4246.410156,4249.230957,4245.897461,4242.692383,4212.307617,4216.666504,4227.179688,0.000000,3.000000,73.000000,,,,0.000000,4.000000,4.000000,4.000000,4.000000,4.000000,4.000000,4.000000,4.000000,4.000000,4.000000,4.000000,4.000000,4.000000,4.000000,100.000000,,,,,,,,,,,,,,,,,,,,,,,,,,,,
1648680759.229905,1648680759.272094,63.000000,0.000000,4259.358887,4252.948730,4242.307617,4236.666504,4276.153809,4249.615234,4235.769043,4255.000000,4253.333496,4253.077148,4239.871582,4211.922852,4239.358887,4224.487305,0.000000,3.000000,73.000000,,,,0.000000,4.000000,4.000000,4.000000,4.000000,4.000000,4.000000,4.000000,4.000000,4.000000,4.000000,4.000000,4.000000,4.000000,4.000000,100.000000,,,,,,,,,,,,,,,,,,,,,,,,,,,,
1648680759.237702,1648680759.279900,64.000000,0.000000,4243.717773,4239.743652,4231.538574,4222.307617,4264.615234,4240.641113,4223.717773,4250.897461,4247.820313,4242.179688,4232.692383,4202.051270,4220.512695,4212.436035,3581.000000,3.000000,73.000000,,,,0.000000,4.000000,4.000000,4.000000,4.000000,4.000000,4.000000,4.000000,4.000000,4.000000,4.000000,4.000000,4.000000,4.000000,4.000000,100.000000,,,,,,,,,,,,,,,,,16.000000,0.000000,0.702525,-0.109070,-0.702209,-0.038269,1.003922,-0.044923,-0.041993,-25.421530,-95.106430,3.887999
1648680759.245499,1648680759.287606,65.000000,0.000000,4239.743652,4226.794922,4226.538574,4212.179688,4261.153809,4242.820313,4224.615234,4255.384766,4252.436035,4246.153809,4232.948730,4199.615234,4216.666504,4211.410156,3568.000000,3.000000,73.000000,,,,0.000000,4.000000,4.000000,4.000000,4.000000,4.000000,4.000000,4.000000,4.000000,4.000000,4.000000,4.000000,4.000000,4.000000,4.000000,100.000000,,,,,,,,,,,,,,,,,,,,,,,,,,,,
1648680759.253295,1648680759.295313,66.000000,0.000000,4248.205078,4225.000000,4231.282227,4215.769043,4259.871582,4246.410156,4225.641113,4260.128418,4257.563965,4257.820313,4238.205078,4201.922852,4215.897461,4214.358887,3559.000000,3.000000,73.000000,,,,0.000000,4.000000,4.000000,4.000000,4.000000,4.000000,4.000000,4.000000,4.000000,4.000000,4.000000,4.000000,4.000000,4.000000,4.000000,100.000000,,,,,,,,,,,,,,,,,,,,,,,,,,,,
1648680759.261092,1648680759.303119,67.000000,0.000000,4253.846191,4234.230957,4235.128418,4216.794922,4252.179688,4239.487305,4215.128418,4255.897461,4250.256348,4243.461426,4245.512695,4207.179688,4196.794922,4219.615234,3007.000000,3.000000,73.000000,,,,0.000000,4.000000,4.000000,4.000000,4.000000,4.000000,4.000000,4.000000,4.000000,4.000000,4.000000,4.000000,4.000000,4.000000,4.000000,100.000000,,,,,,,,,,,,,,,,,,,,,,,,,,,,
1648680759.268889,1648680759.310825,68.000000,0.000000,4260.897461,4242.563965,4243.846191,4221.410156,4257.563965,4238.461426,4214.102539,4257.948730,4254.615234,4242.948730,4261.666504,4220.384766,4190.512695,4235.128418,3606.000000,3.000000,73.000000,,,,0.000000,4.000000,4.000000,4.000000,4.000000,4.000000,4.000000,4.000000,4.000000,4.000000,4.000000,4.000000,4.000000,4.000000,4.000000,100.000000,,,,,,,,,,,,,,,,,17.000000,0.000000,0.700230,-0.107178,-0.704834,-0.037415,1.013199,-0.058595,-0.059571,-26.169222,-97.199966,1.794461
1648680759.276686,1648680759.318732,69.000000,0.000000,4252.692383,4231.025879,4238.589844,4217.563965,4260.641113,4237.307617,4216.410156,4252.436035,4256.410156,4254.230957,4254.871582,4218.205078,4213.974121,4232.051270,3589.000000,3.000000,73.000000,,,,0.000000,4.000000,4.000000,4.000000,4.000000,4.000000,4.000000,4.000000,4.000000,4.000000,4.000000,4.000000,4.000000,4.000000,4.000000,100.000000,,,,,,,,,,,,,,,,,,,,,,,,,,,,
1648680759.284483,1648680759.326538,70.000000,0.000000,4246.282227,4228.846191,4233.461426,4216.922852,4259.871582,4239.358887,4216.794922,4247.948730,4246.538574,4255.128418,4236.282227,4211.282227,4252.948730,4223.461426,3384.000000,3.000000,73.000000,,,,0.000000,4.000000,4.000000,4.000000,4.000000,4.000000,4.000000,4.000000,4.000000,4.000000,4.000000,4.000000,4.000000,4.000000,4.000000,100.000000,,,,,,,,,,,,,,,,,,,,,,,,,,,,
