Timestamp,OriginalTimestamp,EEG.Counter,EEG.Interpolated,EEG.AF3,EEG.F7,EEG.F3,EEG.FC5,EEG.T7,EEG.P7,EEG.O1,EEG.O2,EEG.P8,EEG.T8,EEG.FC6,EEG.F4,EEG.F8,EEG.AF4,EEG.RawCq,EEG.Battery,EEG.BatteryPercent,MarkerIndex,MarkerType,MarkerValueInt,EEG.MarkerHardware,CQ.AF3,CQ.F7,CQ.F3,CQ.FC5,CQ.T7,CQ.P7,CQ.O1,CQ.O2,CQ.P8,CQ.T8,CQ.FC6,CQ.F4,CQ.F8,CQ.AF4,CQ.Overall,EQ.SampleRateQuality,EQ.OVERALL,EQ.AF3,EQ.F7,EQ.F3,EQ.FC5,EQ.T7,EQ.P7,EQ.O1,EQ.O2,EQ.P8,EQ.T8,EQ.FC6,EQ.F4,EQ.F8,EQ.AF4,MOT.CounterMems,MOT.InterpolatedMems,MOT.Q0,MOT.Q1,MOT.Q2,MOT.Q3,MOT.AccX,MOT.AccY,MOT.AccZ,MOT.MagX,MOT.MagY,MOT.MagZ
1648680582,1648680582,111,0,4265.256348,4260.384766,4257.563965,4265.641113,4291.153809,4273.077148,4250.512695,4272.563965,4258.077148,4260.256348,4280,4233.077148,4262.179688,4267.563965,3584,3,73,,,,0,4,4,4,4,4,4,4,4,4,4,4,4,4,4,100,,,,,,,,,,,,,,,,,,,,,,,,,,,,
1648680582,1648680582,112,0,4275.384766,4265.897461,4267.436035,4273.461426,4301.538574,4275.641113,4243.974121,4275.256348,4270.256348,4256.666504,4273.589844,4244.871582,4286.538574,4276.538574,3592,3,73,,,,0,4,4,4,4,4,4,4,4,4,4,4,4,4,4,100,,,,,,,,,,,,,,,,,28,0,0.745087,-0.058777,-0.662354,0.051758,0.975113,-0.155764,0.120119,-26.019684,-101.087967,8.224613
1648680582,1648680582,113,0,4259.230957,4248.205078,4254.102539,4253.589844,4266.153809,4251.153809,4217.820313,4248.461426,4247.179688,4237.820313,4239.615234,4221.025879,4286.282227,4257.436035,3591,3,73,,,,0,4,4,4,4,4,4,4,4,4,4,4,4,4,4,100,,,,,,,,,,,,,,,,,,,,,,,,,,,,
1648680582,1648680582,114,0,4256.282227,4243.589844,4250.897461,4254.102539,4261.922852,4251.410156,4216.153809,4242.307617,4239.230957,4241.922852,4247.94873,4218.717773,4279.743652,4252.179688,3579,3,73,,,,0,4,4,4,4,4,4,4,4,4,4,4,4,4,4,100,,,,,,,,,,,,,,,,,,,,,,,,,,,,
1648680582,1648680582,115,0,4264.102539,4251.666504,4254.871582,4259.871582,4273.974121,4253.717773,4218.333496,4244.743652,4239.102539,4242.179688,4268.974121,4229.487305,4253.589844,4257.307617,3584,3,73,,,,0,4,4,4,4,4,4,4,4,4,4,4,4,4,4,100,,,,,,,,,,,,,,,,,,,,,,,,,,,,
1648680582,1648680582,116,0,4274.871582,4262.820313,4267.307617,4267.820313,4270.769043,4252.820313,4222.05127,4249.230957,4241.666504,4241.794922,4269.102539,4232.179688,4236.666504,4264.871582,3592,3,73,,,,0,4,4,4,4,4,4,4,4,4,4,4,4,4,4,100,,,,,,,,,,,,,,,,,29,0,0.745036,-0.058838,-0.662415,0.051636,0.99025,-0.151858,0.119631,-24.225224,-100.489815,9.121843
1648680582,1648680582,117,0,4258.846191,4247.436035,4252.94873,4252.563965,4246.410156,4244.102539,4213.974121,4240.128418,4233.333496,4234.487305,4237.692383,4213.461426,4250.384766,4251.666504,3591,3,73,,,,0,4,4,4,4,4,4,4,4,4,4,4,4,4,4,100,,,,,,,,,,,,,,,,,,,,,,,,,,,,
1648680582,1648680582,118,0,4256.794922,4245.769043,4250.384766,4248.333496,4259.230957,4250.897461,4218.717773,4245.128418,4237.179688,4240.256348,4236.794922,4216.538574,4277.563965,4252.436035,3579,3,73,,,,0,4,4,4,4,4,4,4,4,4,4,4,4,4,4,100,,,,,,,,,,,,,,,,,,,,,,,,,,,,
1648680582,1648680582,119,0,4267.94873,4257.820313,4263.846191,4260.512695,4283.205078,4255.256348,4226.666504,4260.897461,4246.025879,4244.358887,4260.256348,4228.846191,4270.769043,4260,3584,3,73,,,,0,4,4,4,4,4,4,4,4,4,4,4,4,4,4,100,,,,,,,,,,,,,,,,,,,,,,,,,,,,
1648680582,1648680582,120,0,4268.461426,4260,4265.256348,4266.282227,4282.436035,4258.846191,4231.794922,4273.589844,4258.846191,4246.922852,4267.05127,4229.615234,4269.358887,4262.179688,3592,3,73,,,,0,4,4,4,4,4,4,4,4,4,4,4,4,4,4,100,,,,,,,,,,,,,,,,,30,0,0.74513,-0.059021,-0.662292,0.051636,0.986831,-0.159182,0.114748,-24.225224,-99.443047,8.374151
1648680582,1648680582,121,0,4248.461426,4241.922852,4241.153809,4245.256348,4262.436035,4253.974121,4221.410156,4263.077148,4252.563965,4243.846191,4249.871582,4212.820313,4254.615234,4247.563965,3591,3,73,,,,0,4,4,4,4,4,4,4,4,4,4,4,4,4,4,100,,,,,,,,,,,,,,,,,,,,,,,,,,,,
1648680582,1648680582,122,0,4240.384766,4242.307617,4233.589844,4241.282227,4262.05127,4254.102539,4220.256348,4258.205078,4246.025879,4245.256348,4246.666504,4205.512695,4219.102539,4238.077148,3579,3,73,,,,0,4,4,4,4,4,4,4,4,4,4,4,4,4,4,100,,,,,,,,,,,,,,,,,,,,,,,,,,,,
1648680582,1648680582,123,0,4242.820313,4250.128418,4243.717773,4254.487305,4273.461426,4262.692383,4230.512695,4267.692383,4258.717773,4252.692383,4253.589844,4209.871582,4222.563965,4239.871582,3584,3,73,,,,0,4,4,4,4,4,4,4,4,4,4,4,4,4,4,100,,,,,,,,,,,,,,,,,,,,,,,,,,,,
1648680582,1648680582,124,0,4238.205078,4242.436035,4240.384766,4246.410156,4263.974121,4259.487305,4226.282227,4261.153809,4254.743652,4250.384766,4245.897461,4206.153809,4259.487305,4237.692383,3592,3,73,,,,0,4,4,4,4,4,4,4,4,4,4,4,4,4,4,100,,,,,,,,,,,,,,,,,31,0,0.745137,-0.059143,-0.662292,0.051392,0.993179,-0.160159,0.11133,-23.477531,-100.190735,8.374151
1648680582,1648680582,125,0,4238.846191,4236.922852,4233.205078,4232.436035,4251.282227,4255.512695,4219.230957,4253.205078,4240.128418,4237.94873,4239.487305,4201.410156,4264.743652,4238.589844,3591,3,73,,,,0,4,4,4,4,4,4,4,4,4,4,4,4,4,4,100,,,,,,,,,,,,,,,,,,,,,,,,,,,,
1648680582,1648680582,126,0,4245.897461,4249.871582,4238.717773,4238.974121,4265.897461,4265.128418,4230.641113,4264.230957,4247.307617,4232.94873,4247.692383,4208.205078,4244.358887,4242.820313,3579,3,73,,,,0,4,4,4,4,4,4,4,4,4,4,4,4,4,4,100,,,,,,,,,,,,,,,,,,,,,,,,,,,,
1648680582,1648680582,127,0,4257.692383,4263.846191,4259.358887,4264.102539,4290.128418,4275.769043,4243.846191,4280.897461,4269.102539,4259.358887,4264.358887,4227.179688,4252.436035,4255,55,3,73,,,,0,4,4,4,4,4,4,4,4,4,4,4,4,4,4,100,,,,,,,,,,,,,,,,,,,,,,,,,,,,
1648680582,1648680582,0,0,4248.589844,4246.282227,4252.563965,4254.871582,4271.538574,4261.922852,4229.487305,4265.384766,4260,4266.282227,4253.846191,4218.205078,4250.897461,4249.615234,3598,3,73,,,,0,4,4,4,4,4,4,4,4,4,4,4,4,4,4,100,,,,,,,,,,,,,,,,,0,0,0.745046,-0.059082,-0.662415,0.051208,1.008316,-0.151369,0.11426,-24.225224,-100.190735,7.626459
1648680582,1648680582,1,0,4247.05127,4243.461426,4247.307617,4248.077148,4268.077148,4264.615234,4230.128418,4265,4260.256348,4263.589844,4251.410156,4215.769043,4261.666504,4251.282227,3590,3,73,,,,0,4,4,4,4,4,4,4,4,4,4,4,4,4,4,100,,,,,,,,,,,,,,,,,,,,,,,,,,,,
1648680582,1648680582,2,0,4255,4262.563965,4257.179688,4262.94873,4287.820313,4269.230957,4234.615234,4278.461426,4272.563965,4261.025879,4262.179688,4226.025879,4282.307617,4255.897461,3605,3,73,,,,0,4,4,4,4,4,4,4,4,4,4,4,4,4,4,100,,,,,,,,,,,,,,,,,,,,,,,,,,,,
1648680582,1648680582,3,0,4263.461426,4265.897461,4265.384766,4269.487305,4279.487305,4263.205078,4227.692383,4282.692383,4276.410156,4267.179688,4270.512695,4234.743652,4279.230957,4263.333496,3066,3,73,,,,0,4,4,4,4,4,4,4,4,4,4,4,4,4,4,100,,,,,,,,,,,,,,,,,,,,,,,,,,,,
1648680582,1648680582,4,0,4252.307617,4237.94873,4249.102539,4245,4249.871582,4250.769043,4215.769043,4261.282227,4255.897461,4257.820313,4255.512695,4222.307617,4250.256348,4257.307617,3667,3,73,,,,0,4,4,4,4,4,4,4,4,4,4,4,4,4,4,100,,,,,,,,,,,,,,,,,1,0,0.745065,-0.058899,-0.662415,0.051147,1.009781,-0.154788,0.115724,-25.271992,-100.639351,7.476921
1648680582,1648680582,5,0,4260.897461,4248.717773,4257.179688,4255.256348,4275.897461,4265.897461,4231.410156,4263.974121,4260.384766,4262.179688,4265,4227.94873,4256.282227,4263.333496,3614,3,73,,,,0,4,4,4,4,4,4,4,4,4,4,4,4,4,4,100,,,,,,,,,,,,,,,,,,,,,,,,,,,,
1648680582,1648680582,6,0,4260.641113,4265.769043,4263.205078,4267.179688,4285.897461,4264.871582,4229.102539,4269.743652,4264.102539,4265,4270.256348,4228.717773,4262.05127,4260.256348,3408,3,73,,,,0,4,4,4,4,4,4,4,4,4,4,4,4,4,4,100,,,,,,,,,,,,,,,,,,,,,,,,,,,,
1648680582,1648680582,7,0,4250.256348,4256.922852,4254.743652,4257.307617,4264.102539,4254.358887,4219.615234,4267.94873,4260.897461,4261.666504,4262.307617,4225,4256.025879,4256.410156,3576,3,73,,,,0,4,4,4,4,4,4,4,4,4,4,4,4,4,4,100,,,,,,,,,,,,,,,,,,,,,,,,,,,,
1648680582,1648680582,8,0,4250.128418,4243.589844,4250.384766,4250.897461,4257.179688,4251.666504,4220.641113,4265.897461,4259.871582,4259.871582,4258.974121,4225,4259.871582,4256.153809,3560,3,73,,,,0,4,4,4,4,4,4,4,4,4,4,4,4,4,4,100,,,,,,,,,,,,,,,,,2,0,0.745308,-0.058838,-0.66217,0.050842,0.982925,-0.147951,0.103517,-24.225224,-100.190735,9.121843
1648680582,1648680582,9,0,4267.307617,4256.666504,4265,4266.794922,4284.102539,4267.179688,4232.436035,4274.358887,4266.153809,4266.282227,4270.256348,4234.743652,4273.461426,4264.743652,3585,3,73,,,,0,4,4,4,4,4,4,4,4,4,4,4,4,4,4,100,,,,,,,,,,,,,,,,,,,,,,,,,,,,
1648680582,1648680582,10,0,4260,4255.641113,4261.666504,4264.102539,4280.641113,4267.820313,4226.666504,4268.846191,4259.102539,4259.743652,4262.179688,4230.384766,4260,4260.128418,3620,3,73,,,,0,4,4,4,4,4,4,4,4,4,4,4,4,4,4,100,,,,,,,,,,,,,,,,,,,,,,,,,,,,
1648680582,1648680582,11,0,4241.410156,4238.077148,4247.436035,4247.94873,4254.102539,4253.589844,4216.922852,4252.179688,4246.025879,4248.461426,4242.692383,4215.897461,4242.692383,4246.410156,3609,3,73,,,,0,4,4,4,4,4,4,4,4,4,4,4,4,4,4,100,,,,,,,,,,,,,,,,,,,,,,,,,,,,
1648680582,1648680582,12,0,4243.461426,4240.641113,4251.282227,4250.897461,4262.563965,4252.820313,4221.794922,4250.769043,4248.205078,4247.307617,4246.538574,4215.641113,4252.05127,4246.025879,3627,3,73,,,,0,4,4,4,4,4,4,4,4,4,4,4,4,4,4,100,,,,,,,,,,,,,,,,,3,0,0.745438,-0.058716,-0.662048,0.050659,0.983902,-0.14844,0.112795,-24.075686,-100.639351,8.972305
1648680582,1648680582,13,0,4244.871582,4252.436035,4248.589844,4252.563965,4280,4257.692383,4225,4252.436035,4248.461426,4235.897461,4243.846191,4212.563965,4254.230957,4241.410156,3625,3,73,,,,0,4,4,4,4,4,4,4,4,4,4,4,4,4,4,100,,,,,,,,,,,,,,,,,,,,,,,,,,,,
1648680582,1648680582,14,0,4244.487305,4257.820313,4243.077148,4253.077148,4284.743652,4261.410156,4225.769043,4258.333496,4253.333496,4241.153809,4235.769043,4208.077148,4251.153809,4236.025879,3620,3,73,,,,0,4,4,4,4,4,4,4,4,4,4,4,4,4,4,100,,,,,,,,,,,,,,,,,,,,,,,,,,,,
1648680582,1648680582,15,0,4238.461426,4253.077148,4240.256348,4251.153809,4268.333496,4251.153809,4219.743652,4257.05127,4250.512695,4252.692383,4235.128418,4201.410156,4244.358887,4230.897461,3609,3,73,,,,0,4,4,4,4,4,4,4,4,4,4,4,4,4,4,100,,,,,,,,,,,,,,,,,,,,,,,,,,,,
1648680582,1648680582,16,0,4238.846191,4253.846191,4245,4254.358887,4264.102539,4250.384766,4220,4253.717773,4247.692383,4250.897461,4244.871582,4205.384766,4231.666504,4236.922852,0,3,73,,,,0,4,4,4,4,4,4,4,4,4,4,4,4,4,4,100,,,,,,,,,,,,,,,,,4,0,0.745505,-0.058716,-0.661987,0.050476,0.981949,-0.142092,0.124514,-24.823378,-101.087967,7.476921
1648680582,1648680582,17,0,4236.282227,4250.128418,4240,4248.333496,4262.179688,4249.230957,4215.128418,4242.05127,4235.128418,4234.743652,4237.307617,4198.846191,4212.436035,4234.102539,0,3,73,,,,0,4,4,4,4,4,4,4,4,4,4,4,4,4,4,100,,,,,,,,,,,,,,,,,,,,,,,,,,,,
1648680582,1648680582,18,0,4240.641113,4246.922852,4245,4249.230957,4257.692383,4251.410156,4216.025879,4246.153809,4235.641113,4238.846191,4235.641113,4201.153809,4226.410156,4236.538574,0,3,73,,,,0,4,4,4,4,4,4,4,4,4,4,4,4,4,4,100,,,,,,,,,,,,,,,,,,,,,,,,,,,,
1648680582,1648680582,19,0,4237.307617,4239.230957,4242.05127,4239.871582,4255.256348,4249.358887,4216.153809,4245.512695,4238.974121,4240.512695,4237.94873,4205.128418,4232.05127,4235.512695,0,3,73,,,,0,4,4,4,4,4,4,4,4,4,4,4,4,4,4,100,,,,,,,,,,,,,,,,,,,,,,,,,,,,
1648680582,1648680582,20,0,4252.692383,4252.307617,4252.179688,4250,4279.358887,4264.743652,4230.128418,4251.666504,4247.94873,4248.717773,4257.179688,4224.102539,4235.769043,4249.871582,0,3,73,,,,0,4,4,4,4,4,4,4,4,4,4,4,4,4,4,100,,,,,,,,,,,,,,,,,5,0,0.745553,-0.058838,-0.661926,0.050415,0.995621,-0.14844,0.124025,-23.926146,-100.489815,9.42092
1648680582,1648680582,21,0,4257.692383,4258.333496,4257.94873,4260.641113,4284.743652,4265.128418,4230.769043,4251.794922,4245.384766,4244.358887,4256.538574,4226.794922,4250,4255.384766,0,3,73,,,,0,4,4,4,4,4,4,4,4,4,4,4,4,4,4,100,,,,,,,,,,,,,,,,,,,,,,,,,,,,
1648680582,1648680582,22,0,4252.436035,4254.615234,4256.282227,4257.94873,4273.077148,4259.102539,4230.256348,4258.846191,4252.692383,4249.871582,4245.256348,4219.487305,4263.077148,4253.461426,0,3,73,,,,0,4,4,4,4,4,4,4,4,4,4,4,4,4,4,100,,,,,,,,,,,,,,,,,,,,,,,,,,,,
1648680582,1648680582,23,0,4251.153809,4250.512695,4252.307617,4250,4270.897461,4259.743652,4231.794922,4265,4260.512695,4264.871582,4246.153809,4218.077148,4247.820313,4251.410156,0,3,73,,,,0,4,4,4,4,4,4,4,4,4,4,4,4,4,4,100,,,,,,,,,,,,,,,,,,,,,,,,,,,,
1648680582,1648680582,24,0,4260.128418,4257.436035,4260.384766,4256.282227,4280.769043,4266.922852,4234.743652,4269.743652,4263.205078,4269.358887,4260.384766,4228.846191,4248.717773,4259.743652,0,3,73,,,,0,4,4,4,4,4,4,4,4,4,4,4,4,4,4,100,,,,,,,,,,,,,,,,,6,0,0.745588,-0.059082,-0.661865,0.050415,0.983902,-0.147463,0.112795,-24.673838,-100.938431,9.121843
1648680582,1648680582,25,0,4257.436035,4257.436035,4257.94873,4255.897461,4280,4260.769043,4227.692383,4263.846191,4256.794922,4256.153809,4257.307617,4225.384766,4260,4255.384766,0,3,73,,,,0,4,4,4,4,4,4,4,4,4,4,4,4,4,4,100,,,,,,,,,,,,,,,,,,,,,,,,,,,,
1648680582,1648680582,26,0,4254.230957,4257.692383,4249.230957,4252.436035,4272.563965,4255.641113,4223.333496,4253.846191,4249.615234,4250.512695,4249.358887,4214.102539,4258.205078,4248.205078,0,3,73,,,,0,4,4,4,4,4,4,4,4,4,4,4,4,4,4,100,,,,,,,,,,,,,,,,,,,,,,,,,,,,
1648680582,1648680582,27,0,4251.025879,4252.436035,4246.025879,4253.333496,4255.769043,4254.615234,4221.153809,4246.922852,4243.717773,4252.820313,4242.563965,4207.820313,4250.128418,4247.692383,0,3,73,,,,0,4,4,4,4,4,4,4,4,4,4,4,4,4,4,100,,,,,,,,,,,,,,,,,,,,,,,,,,,,
1648680582,1648680582,28,0,4249.743652,4253.461426,4248.589844,4258.205078,4264.871582,4256.794922,4221.666504,4246.666504,4241.794922,4250.897461,4242.05127,4210.384766,4247.179688,4251.410156,0,3,73,,,,0,4,4,4,4,4,4,4,4,4,4,4,4,4,4,100,,,,,,,,,,,,,,,,,7,0,0.745692,-0.059143,-0.661743,0.050415,0.987808,-0.164553,0.115236,-24.673838,-99.443047,8.374151
1648680582,1648680582,29,0,4261.922852,4266.025879,4258.205078,4267.179688,4297.05127,4266.282227,4232.692383,4262.94873,4255.897461,4258.461426,4260.256348,4223.461426,4256.025879,4261.410156,0,3,73,,,,0,4,4,4,4,4,4,4,4,4,4,4,4,4,4,100,0.980469,75,4,4,3,4,3,3,4,3,4,3,4,4,3,4,,,,,,,,,,,,
1648680582,1648680582,30,0,4258.846191,4257.436035,4254.102539,4258.974121,4286.153809,4263.717773,4231.666504,4263.461426,4259.615234,4262.179688,4262.05127,4222.179688,4248.974121,4256.025879,0,3,73,,,,0,4,4,4,4,4,4,4,4,4,4,4,4,4,4,100,,,,,,,,,,,,,,,,,,,,,,,,,,,,
1648680582,1648680582,31,0,4248.461426,4248.846191,4247.563965,4254.615234,4263.846191,4259.487305,4223.333496,4251.282227,4250.128418,4256.794922,4253.589844,4219.358887,4237.820313,4248.974121,0,3,73,,,,0,4,4,4,4,4,4,4,4,4,4,4,4,4,4,100,,,,,,,,,,,,,,,,,,,,,,,,,,,,
1648680582,1648680582,32,0,4250.512695,4258.461426,4247.563965,4262.94873,4272.692383,4253.589844,4218.846191,4244.487305,4241.794922,4245.512695,4248.974121,4218.846191,4243.077148,4249.102539,0,3,73,,,,0,4,4,4,4,4,4,4,4,4,4,4,4,4,4,100,,,,,,,,,,,,,,,,,8,0,0.745781,-0.059387,-0.661621,0.050415,0.981949,-0.150881,0.123049,-26.019684,-99.592583,8.224613
1648680582,1648680582,33,0,4266.153809,4263.333496,4259.871582,4270.256348,4286.410156,4261.666504,4228.974121,4258.077148,4253.589844,4257.692383,4257.94873,4227.692383,4270.512695,4262.820313,0,3,73,,,,0,4,4,4,4,4,4,4,4,4,4,4,4,4,4,100,,,,,,,,,,,,,,,,,,,,,,,,,,,,
1648680582,1648680582,34,0,4252.05127,4243.974121,4251.410156,4249.487305,4257.179688,4259.871582,4224.615234,4248.717773,4244.615234,4253.589844,4250.897461,4217.307617,4259.230957,4253.333496,0,3,73,,,,0,4,4,4,4,4,4,4,4,4,4,4,4,4,4,100,,,,,,,,,,,,,,,,,,,,,,,,,,,,
1648680582,1648680582,35,0,4246.922852,4249.615234,4250.769043,4249.743652,4262.563965,4262.820313,4228.717773,4245.256348,4241.538574,4245.384766,4251.794922,4216.538574,4235.641113,4249.743652,0,3,73,,,,0,4,4,4,4,4,4,4,4,4,4,4,4,4,4,100,,,,,,,,,,,,,,,,,,,,,,,,,,,,
1648680582,1648680582,36,0,4251.922852,4254.743652,4248.205078,4251.410156,4288.077148,4259.358887,4230.641113,4249.615234,4243.461426,4239.615234,4246.666504,4215.769043,4226.410156,4251.153809,0,3,73,,,,0,4,4,4,4,4,4,4,4,4,4,4,4,4,4,100,,,,,,,,,,,,,,,,,9,0,0.745889,-0.059387,-0.661499,0.050415,1.00148,-0.15967,0.12256,-23.028915,-99.143967,8.673228
1648680582,1648680582,37,0,4257.692383,4254.743652,4251.282227,4252.94873,4294.230957,4267.820313,4237.820313,4258.333496,4256.538574,4246.282227,4246.794922,4218.717773,4240,4256.922852,0,3,73,,,,0,4,4,4,4,4,4,4,4,4,4,4,4,4,4,100,,,,,,,,,,,,,,,,,,,,,,,,,,,,
1648680582,1648680582,38,0,4243.205078,4247.05127,4246.153809,4248.717773,4270.384766,4265.897461,4235.641113,4250.384766,4257.05127,4246.153809,4240.769043,4210.512695,4242.307617,4243.333496,0,3,73,,,,0,4,4,4,4,4,4,4,4,4,4,4,4,4,4,100,,,,,,,,,,,,,,,,,,,,,,,,,,,,
1648680582,1648680582,39,0,4244.358887,4249.487305,4246.666504,4248.974121,4269.487305,4260.769043,4235.769043,4251.666504,4255.512695,4257.692383,4246.538574,4212.820313,4250.897461,4241.666504,0,3,73,,,,0,4,4,4,4,4,4,4,4,4,4,4,4,4,4,100,,,,,,,,,,,,,,,,,,,,,,,,,,,,
1648680582,1648680582,40,0,4255.512695,4257.307617,4250.897461,4251.666504,4278.077148,4257.307617,4232.692383,4256.922852,4257.563965,4262.179688,4261.922852,4223.205078,4262.94873,4258.077148,0,3,73,,,,0,4,4,4,4,4,4,4,4,4,4,4,4,4,4,100,,,,,,,,,,,,,,,,,10,0,0.745889,-0.059387,-0.661499,0.050415,0.988785,-0.157717,0.113771,-25.122454,-100.489815,9.42092
1648680582,1648680582,41,0,4261.410156,4265,4259.487305,4263.717773,4274.102539,4259.871582,4235.641113,4256.794922,4263.333496,4261.282227,4271.153809,4228.589844,4269.102539,4269.102539,0,3,73,,,,0,4,4,4,4,4,4,4,4,4,4,4,4,4,4,100,,,,,,,,,,,,,,,,,,,,,,,,,,,,
1648680582,1648680582,42,0,4259.358887,4260.641113,4261.153809,4263.589844,4273.077148,4256.025879,4231.153809,4252.692383,4256.538574,4262.820313,4268.205078,4227.94873,4262.692383,4264.743652,0,3,73,,,,0,4,4,4,4,4,4,4,4,4,4,4,4,4,4,100,,,,,,,,,,,,,,,,,,,,,,,,,,,,
1648680582,1648680582,43,0,4260.384766,4260.897461,4256.666504,4251.538574,4273.589844,4253.974121,4223.974121,4251.794922,4244.615234,4253.717773,4265.512695,4230.641113,4256.282227,4260.769043,0,3,73,,,,0,4,4,4,4,4,4,4,4,4,4,4,4,4,4,100,,,,,,,,,,,,,,,,,,,,,,,,,,,,
1648680582,1648680582,44,0,4261.282227,4261.025879,4258.077148,4253.717773,4265.384766,4259.871582,4229.102539,4254.743652,4250.769043,4251.025879,4265.769043,4232.307617,4257.820313,4260.897461,0,3,73,,,,0,4,4,4,4,4,4,4,4,4,4,4,4,4,4,100,,,,,,,,,,,,,,,,,11,0,0.745789,-0.059387,-0.661621,0.050293,0.991714,-0.154299,0.116213,-24.673838,-99.742119,9.42092
1648680582,1648680582,45,0,4248.974121,4244.358887,4249.102539,4251.282227,4261.025879,4251.282227,4226.282227,4245.512695,4248.846191,4255.897461,4255.256348,4219.871582,4247.179688,4250.769043,0,3,73,,,,0,4,4,4,4,4,4,4,4,4,4,4,4,4,4,100,,,,,,,,,,,,,,,,,,,,,,,,,,,,
1648680582,1648680582,46,0,4252.820313,4247.307617,4251.538574,4253.333496,4284.358887,4249.358887,4225.128418,4249.487305,4250.384766,4267.179688,4261.794922,4225.384766,4252.436035,4258.205078,0,3,73,,,,0,4,4,4,4,4,4,4,4,4,4,4,4,4,4,100,,,,,,,,,,,,,,,,,,,,,,,,,,,,
1648680582,1648680582,47,0,4265.256348,4263.846191,4265.128418,4263.077148,4293.589844,4258.846191,4231.538574,4257.820313,4256.410156,4262.563965,4267.94873,4234.743652,4261.282227,4267.05127,0,3,73,,,,0,4,4,4,4,4,4,4,4,4,4,4,4,4,4,100,,,,,,,,,,,,,,,,,,,,,,,,,,,,
1648680582,1648680582,48,0,4269.230957,4259.102539,4269.615234,4265.641113,4275.128418,4260.512695,4232.563965,4254.615234,4255.256348,4249.358887,4259.871582,4231.794922,4257.05127,4261.666504,0,3,73,,,,0,4,4,4,4,4,4,4,4,4,4,4,4,4,4,100,,,,,,,,,,,,,,,,,12,0,0.745794,-0.059326,-0.661621,0.050293,0.996597,-0.163088,0.101076,-23.477531,-99.742119,7.925536
1648680582,1648680582,49,0,4253.077148,4242.563965,4253.589844,4247.307617,4258.461426,4243.974121,4216.410156,4233.461426,4236.410156,4236.153809,4244.230957,4218.846191,4248.717773,4248.717773,0,3,73,,,,0,4,4,4,4,4,4,4,4,4,4,4,4,4,4,100,,,,,,,,,,,,,,,,,,,,,,,,,,,,
1648680582,1648680582,50,0,4256.794922,4255,4260.641113,4251.282227,4270.128418,4252.94873,4223.461426,4238.077148,4241.153809,4255.512695,4258.717773,4228.461426,4258.205078,4260.384766,0,3,73,,,,0,4,4,4,4,4,4,4,4,4,4,4,4,4,4,100,,,,,,,,,,,,,,,,,,,,,,,,,,,,
1648680582,1648680582,51,0,4258.846191,4253.461426,4263.461426,4251.666504,4264.871582,4257.436035,4229.358887,4244.102539,4244.871582,4257.820313,4265.769043,4229.487305,4252.820313,4259.743652,0,3,73,,,,0,4,4,4,4,4,4,4,4,4,4,4,4,4,4,100,,,,,,,,,,,,,,,,,,,,,,,,,,,,
1648680582,1648680582,52,0,4262.820313,4251.410156,4267.179688,4259.743652,4272.179688,4257.692383,4234.743652,4250.128418,4251.282227,4244.743652,4261.922852,4232.05127,4261.282227,4261.282227,0,3,73,,,,0,4,4,4,4,4,4,4,4,4,4,4,4,4,4,100,,,,,,,,,,,,,,,,,13,0,0.745754,-0.059204,-0.661682,0.050232,0.975601,-0.152834,0.112306,-24.823378,-99.592583,8.224613
1648680582,1648680582,53,0,4252.94873,4247.436035,4258.589844,4255.897461,4262.820313,4247.563965,4226.153809,4241.410156,4242.05127,4234.615234,4239.358887,4220.128418,4248.974121,4252.05127,0,3,73,,,,0,4,4,4,4,4,4,4,4,4,4,4,4,4,4,100,,,,,,,,,,,,,,,,,,,,,,,,,,,,
1648680582,1648680582,54,0,4251.153809,4246.410156,4253.205078,4244.615234,4248.717773,4251.025879,4227.94873,4242.179688,4238.077148,4247.307617,4236.538574,4213.974121,4224.358887,4245.512695,0,3,73,,,,0,4,4,4,4,4,4,4,4,4,4,4,4,4,4,100,,,,,,,,,,,,,,,,,,,,,,,,,,,,
1648680582,1648680582,55,0,4258.333496,4251.794922,4261.153809,4244.487305,4265.512695,4264.102539,4241.666504,4260.256348,4252.179688,4261.538574,4256.666504,4226.410156,4237.307617,4253.333496,0,3,73,,,,0,4,4,4,4,4,4,4,4,4,4,4,4,4,4,100,,,,,,,,,,,,,,,,,,,,,,,,,,,,
1648680582,1648680582,56,0,4269.871582,4271.153809,4279.615234,4267.820313,4299.871582,4276.666504,4252.94873,4279.615234,4270.897461,4272.820313,4274.487305,4243.846191,4270,4272.05127,0,3,73,,,,0,4,4,4,4,4,4,4,4,4,4,4,4,4,4,100,,,,,,,,,,,,,,,,,14,0,0.745889,-0.059021,-0.66156,0.050049,0.992203,-0.153811,0.104005,-25.122454,-100.489815,8.673228
1648680582,1648680582,57,0,4268.589844,4266.282227,4272.692383,4269.358887,4286.538574,4266.410156,4239.871582,4268.461426,4259.615234,4263.333496,4263.205078,4231.538574,4256.282227,4264.102539,0,3,73,,,,0,4,4,4,4,4,4,4,4,4,4,4,4,4,4,100,,,,,,,,,,,,,,,,,,,,,,,,,,,,
1648680582,1648680582,58,0,4265.897461,4248.974121,4261.666504,4256.922852,4262.692383,4257.05127,4232.692383,4254.871582,4246.025879,4247.820313,4255.897461,4220,4247.307617,4252.179688,0,3,73,,,,0,4,4,4,4,4,4,4,4,4,4,4,4,4,4,100,,,,,,,,,,,,,,,,,,,,,,,,,,,,
1648680582,1648680582,59,0,4271.538574,4249.358887,4275.769043,4265.256348,4278.077148,4265.641113,4241.282227,4263.717773,4259.230957,4260.128418,4272.436035,4237.820313,4275.769043,4268.717773,0,3,73,,,,0,4,4,4,4,4,4,4,4,4,4,4,4,4,4,100,,,,,,,,,,,,,,,,,,,,,,,,,,,,
1648680582,1648680582,60,0,4272.692383,4260.128418,4282.05127,4271.410156,4292.179688,4271.410156,4240,4264.487305,4257.307617,4265.641113,4277.94873,4245.512695,4280.769043,4279.102539,0,3,73,,,,0,4,4,4,4,4,4,4,4,4,4,4,4,4,4,100,,,,,,,,,,,,,,,,,15,0,0.746122,-0.05896,-0.661316,0.049866,0.996109,-0.143557,0.120607,-27.066454,-99.143967,8.374151
1648680582,1648680582,61,0,4275.384766,4271.666504,4277.692383,4272.307617,4291.666504,4276.282227,4239.487305,4263.717773,4250,4255,4267.820313,4237.307617,4268.077148,4272.307617,0,3,73,,,,0,4,4,4,4,4,4,4,4,4,4,4,4,4,4,100,,,,,,,,,,,,,,,,,,,,,,,,,,,,
1648680582,1648680582,62,0,4273.461426,4269.487305,4274.102539,4276.153809,4286.410156,4274.743652,4241.282227,4263.461426,4257.436035,4249.358887,4256.153809,4233.333496,4261.153809,4263.205078,0,3,73,,,,0,4,4,4,4,4,4,4,4,4,4,4,4,4,4,100,,,,,,,,,,,,,,,,,,,,,,,,,,,,
1648680582,1648680582,63,0,4274.358887,4267.179688,4278.846191,4280.769043,4293.589844,4274.743652,4245.128418,4269.230957,4269.230957,4263.333496,4263.846191,4240.897461,4256.538574,4268.974121,0,3,73,,,,0,4,4,4,4,4,4,4,4,4,4,4,4,4,4,100,,,,,,,,,,,,,,,,,,,,,,,,,,,,
1648680582,1648680583,64,0,4262.307617,4263.333496,4264.871582,4259.102539,4277.307617,4266.282227,4237.436035,4264.487305,4253.717773,4259.871582,4259.230957,4223.974121,4233.717773,4256.410156,3626,3,73,,,,0,4,4,4,4,4,4,4,4,4,4,4,4,4,4,100,,,,,,,,,,,,,,,,,16,0,0.746153,-0.059204,-0.661255,0.049927,0.992691,-0.14844,0.12256,-23.926146,-99.742119,10.168612
1648680583,1648680583,65,0,4257.307617,4261.153809,4258.077148,4252.820313,4258.974121,4262.94873,4232.692383,4262.820313,4247.692383,4253.974121,4255,4216.282227,4228.974121,4247.179688,3610,3,73,,,,0,4,4,4,4,4,4,4,4,4,4,4,4,4,4,100,,,,,,,,,,,,,,,,,,,,,,,,,,,,
1648680583,1648680583,66,0,4262.05127,4261.410156,4266.794922,4264.871582,4274.743652,4261.153809,4232.820313,4262.179688,4256.282227,4253.974121,4258.333496,4226.794922,4241.410156,4255.256348,3620,3,73,,,,0,4,4,4,4,4,4,4,4,4,4,4,4,4,4,100,,,,,,,,,,,,,,,,,,,,,,,,,,,,
1648680583,1648680583,67,0,4278.717773,4270.256348,4284.102539,4276.538574,4305.512695,4279.230957,4251.025879,4278.589844,4276.282227,4273.333496,4279.615234,4245.769043,4261.666504,4277.820313,3085,3,73,,,,0,4,4,4,4,4,4,4,4,4,4,4,4,4,4,100,,,,,,,,,,,,,,,,,,,,,,,,,,,,
1648680583,1648680583,68,0,4267.436035,4256.025879,4270.384766,4260.256348,4283.717773,4273.846191,4245.512695,4269.102539,4266.025879,4267.94873,4274.102539,4234.871582,4249.743652,4270.769043,3677,3,73,,,,0,4,4,4,4,4,4,4,4,4,4,4,4,4,4,100,,,,,,,,,,,,,,,,,17,0,0.746201,-0.059326,-0.661194,0.049866,0.997086,-0.160159,0.117678,-22.879377,-99.592583,8.972305
1648680583,1648680583,69,0,4263.846191,4254.871582,4266.538574,4265.256348,4268.846191,4264.487305,4237.436035,4258.077148,4255.384766,4255.897461,4264.871582,4229.487305,4247.436035,4264.743652,3620,3,73,,,,0,4,4,4,4,4,4,4,4,4,4,4,4,4,4,100,,,,,,,,,,,,,,,,,,,,,,,,,,,,
1648680583,1648680583,70,0,4274.615234,4266.794922,4273.846191,4278.333496,4279.230957,4263.333496,4235.384766,4264.743652,4258.333496,4255.769043,4269.230957,4236.025879,4257.820313,4266.794922,3416,3,73,,,,0,4,4,4,4,4,4,4,4,4,4,4,4,4,4,100,,,,,,,,,,,,,,,,,,,,,,,,,,,,
1648680583,1648680583,71,0,4281.922852,4269.487305,4279.230957,4272.820313,4282.436035,4268.717773,4240.256348,4274.615234,4268.846191,4276.282227,4282.94873,4245.512695,4264.358887,4273.974121,3581,3,73,,,,0,4,4,4,4,4,4,4,4,4,4,4,4,4,4,100,,,,,,,,,,,,,,,,,,,,,,,,,,,,
1648680583,1648680583,72,0,4273.461426,4260.641113,4272.05127,4257.436035,4275.512695,4261.922852,4239.230957,4268.846191,4268.461426,4286.794922,4279.230957,4243.589844,4264.487305,4273.461426,3570,3,73,,,,0,4,4,4,4,4,4,4,4,4,4,4,4,4,4,100,,,,,,,,,,,,,,,,,18,0,0.746175,-0.059509,-0.661194,0.050049,0.986343,-0.150881,0.123537,-24.823378,-100.340279,8.972305
1648680583,1648680583,73,0,4276.153809,4271.922852,4274.102539,4272.692383,4290.128418,4269.102539,4246.666504,4274.615234,4273.717773,4286.282227,4275.384766,4243.461426,4275.384766,4275,3600,3,73,,,,0,4,4,4,4,4,4,4,4,4,4,4,4,4,4,100,,,,,,,,,,,,,,,,,,,,,,,,,,,,
1648680583,1648680583,74,0,4277.436035,4268.589844,4273.974121,4283.461426,4284.230957,4274.871582,4245.512695,4274.358887,4269.102539,4275.384766,4272.179688,4236.410156,4260.128418,4269.871582,3625,3,73,,,,0,4,4,4,4,4,4,4,4,4,4,4,4,4,4,100,,,,,,,,,,,,,,,,,,,,,,,,,,,,
1648680583,1648680583,75,0,4267.179688,4253.205078,4263.461426,4264.487305,4265.256348,4264.102539,4235.512695,4257.179688,4251.410156,4257.436035,4259.358887,4223.077148,4237.307617,4257.94873,3624,3,73,,,,0,4,4,4,4,4,4,4,4,4,4,4,4,4,4,100,,,,,,,,,,,,,,,,,,,,,,,,,,,,
1648680583,1648680583,76,0,4267.94873,4261.282227,4263.461426,4259.230957,4281.153809,4267.692383,4241.538574,4262.307617,4256.922852,4263.333496,4264.230957,4230.128418,4249.487305,4261.410156,3632,3,73,,,,0,4,4,4,4,4,4,4,4,4,4,4,4,4,4,100,,,,,,,,,,,,,,,,,19,0,0.746247,-0.059326,-0.661133,0.049988,0.989273,-0.143557,0.103029,-24.075686,-100.041199,8.523689
1648680583,1648680583,77,0,4265.897461,4268.205078,4261.153809,4263.717773,4296.538574,4270.769043,4246.153809,4265.256348,4259.102539,4261.666504,4265.897461,4229.743652,4241.666504,4260.897461,3634,3,73,,,,0,4,4,4,4,4,4,4,4,4,4,4,4,4,4,100,,,,,,,,,,,,,,,,,,,,,,,,,,,,
1648680583,1648680583,78,0,4264.358887,4261.538574,4259.615234,4267.563965,4288.589844,4269.358887,4246.410156,4261.922852,4256.282227,4249.230957,4260.256348,4225.512695,4237.820313,4260.256348,3625,3,73,,,,0,4,4,4,4,4,4,4,4,4,4,4,4,4,4,100,,,,,,,,,,,,,,,,,,,,,,,,,,,,
1648680583,1648680583,79,0,4260,4249.230957,4253.589844,4261.922852,4275.512695,4265.384766,4241.025879,4257.94873,4254.743652,4253.077148,4257.179688,4225.384766,4264.871582,4257.692383,3624,3,73,,,,0,4,4,4,4,4,4,4,4,4,4,4,4,4,4,100,,,,,,,,,,,,,,,,,,,,,,,,,,,,
1648680583,1648680583,80,0,4260.384766,4253.717773,4259.615234,4265,4285,4266.794922,4241.538574,4260.512695,4261.410156,4267.820313,4265.512695,4229.102539,4271.794922,4262.179688,3632,3,73,,,,0,4,4,4,4,4,4,4,4,4,4,4,4,4,4,100,,,,,,,,,,,,,,,,,20,0,0.746276,-0.05896,-0.661133,0.049988,0.997574,-0.147951,0.119631,-23.477531,-97.947662,7.327382
1648680583,1648680583,81,0,4246.538574,4250.384766,4251.282227,4253.333496,4258.333496,4248.077148,4228.333496,4242.307617,4244.487305,4243.589844,4252.179688,4212.94873,4223.461426,4248.974121,3634,3,73,,,,0,4,4,4,4,4,4,4,4,4,4,4,4,4,4,100,,,,,,,,,,,,,,,,,,,,,,,,,,,,
1648680583,1648680583,82,0,4245.897461,4248.717773,4244.230957,4246.666504,4237.692383,4245.512695,4227.05127,4240.512695,4235.128418,4238.589844,4251.410156,4214.871582,4219.487305,4245.128418,3625,3,73,,,,0,4,4,4,4,4,4,4,4,4,4,4,4,4,4,100,,,,,,,,,,,,,,,,,,,,,,,,,,,,
1648680583,1648680583,83,0,4248.589844,4245.128418,4243.717773,4245.256348,4253.077148,4249.615234,4228.205078,4249.102539,4236.666504,4253.974121,4256.666504,4219.743652,4243.974121,4246.153809,3624,3,73,,,,0,4,4,4,4,4,4,4,4,4,4,4,4,4,4,100,,,,,,,,,,,,,,,,,,,,,,,,,,,,
1648680583,1648680583,84,0,4255.128418,4249.615234,4256.153809,4253.077148,4274.743652,4253.077148,4236.794922,4261.538574,4253.077148,4257.820313,4261.666504,4223.846191,4252.820313,4257.820313,3632,3,73,,,,0,4,4,4,4,4,4,4,4,4,4,4,4,4,4,100,,,,,,,,,,,,,,,,,21,0,0.746354,-0.058655,-0.661072,0.049988,0.99025,-0.150881,0.117189,-25.122454,-100.190735,7.925536
1648680583,1648680583,85,0,4247.820313,4245,4250.641113,4243.846191,4255.769043,4246.153809,4234.487305,4257.820313,4254.358887,4244.102539,4249.358887,4214.487305,4244.615234,4253.974121,3634,3,73,,,,0,4,4,4,4,4,4,4,4,4,4,4,4,4,4,100,,,,,,,,,,,,,,,,,,,,,,,,,,,,
1648680583,1648680583,86,0,4248.589844,4253.974121,4247.563965,4242.436035,4248.589844,4251.538574,4235.897461,4255.512695,4250.641113,4255.641113,4248.333496,4211.794922,4241.794922,4247.436035,3625,3,73,,,,0,4,4,4,4,4,4,4,4,4,4,4,4,4,4,100,,,,,,,,,,,,,,,,,,,,,,,,,,,,
1648680583,1648680583,87,0,4251.538574,4260.256348,4250.384766,4250.512695,4261.666504,4252.692383,4234.230957,4254.871582,4250.256348,4258.333496,4251.666504,4210.769043,4234.102539,4243.589844,3624,3,73,,,,0,4,4,4,4,4,4,4,4,4,4,4,4,4,4,100,,,,,,,,,,,,,,,,,,,,,,,,,,,,
1648680583,1648680583,88,0,4249.615234,4249.358887,4249.743652,4248.846191,4260.641113,4253.205078,4236.666504,4258.461426,4253.846191,4247.436035,4250.512695,4209.743652,4231.025879,4244.358887,3632,3,73,,,,0,4,4,4,4,4,4,4,4,4,4,4,4,4,4,100,,,,,,,,,,,,,,,,,22,0,0.746462,-0.058716,-0.66095,0.049927,0.990738,-0.159182,0.107424,-24.075686,-99.29351,9.271381
1648680583,1648680583,89,0,4242.692383,4239.871582,4244.102539,4238.589844,4262.05127,4258.846191,4241.794922,4260.641113,4256.025879,4252.94873,4249.230957,4212.436035,4232.307617,4247.179688,3634,3,73,,,,0,4,4,4,4,4,4,4,4,4,4,4,4,4,4,100,,,,,,,,,,,,,,,,,,,,,,,,,,,,
1648680583,1648680583,90,0,4244.871582,4249.743652,4249.102539,4245.641113,4271.410156,4263.333496,4245.641113,4258.589844,4255.897461,4261.410156,4254.615234,4220.384766,4238.589844,4254.487305,3625,3,73,,,,0,4,4,4,4,4,4,4,4,4,4,4,4,4,4,100,,,,,,,,,,,,,,,,,,,,,,,,,,,,
1648680583,1648680583,91,0,4248.077148,4252.563965,4250.128418,4249.102539,4252.820313,4259.487305,4238.461426,4251.922852,4246.538574,4245.641113,4246.282227,4214.230957,4246.153809,4250.769043,3624,3,73,,,,0,4,4,4,4,4,4,4,4,4,4,4,4,4,4,100,,,,,,,,,,,,,,,,,,,,,,,,,,,,
1648680583,1648680583,92,0,4241.282227,4243.717773,4239.871582,4238.461426,4245.128418,4254.230957,4225.128418,4243.589844,4235,4226.666504,4229.102539,4199.102539,4232.307617,4236.282227,3632,3,73,,,,0,4,4,4,4,4,4,4,4,4,4,4,4,4,4,100,,,,,,,,,,,,,,,,,23,0,0.746501,-0.058899,-0.660889,0.049927,1.000015,-0.145998,0.124514,-23.028915,-99.443047,8.374151
1648680583,1648680583,93,0,4249.871582,4249.615234,4250,4248.974121,4279.743652,4265.641113,4233.333496,4254.358887,4248.717773,4242.820313,4246.538574,4215.769043,4222.94873,4246.538574,3634,3,73,,,,0,4,4,4,4,4,4,4,4,4,4,4,4,4,4,100,1,83.333336,4,4,4,4,3,4,4,4,4,4,4,4,3,4,,,,,,,,,,,,
1648680583,1648680583,94,0,4255.897461,4256.410156,4258.205078,4256.410156,4285.512695,4266.025879,4239.743652,4259.358887,4255.769043,4244.615234,4257.692383,4226.410156,4230.512695,4253.717773,3625,3,73,,,,0,4,4,4,4,4,4,4,4,4,4,4,4,4,4,100,,,,,,,,,,,,,,,,,,,,,,,,,,,,
1648680583,1648680583,95,0,4254.743652,4257.307617,4253.974121,4253.717773,4261.666504,4257.179688,4232.692383,4256.666504,4251.794922,4234.102539,4249.487305,4218.717773,4244.871582,4251.025879,3624,3,73,,,,0,4,4,4,4,4,4,4,4,4,4,4,4,4,4,100,,,,,,,,,,,,,,,,,,,,,,,,,,,,
1648680583,1648680583,96,0,4248.461426,4250.897461,4243.589844,4244.358887,4256.153809,4251.153809,4226.922852,4251.282227,4245.256348,4242.94873,4243.717773,4212.436035,4247.820313,4248.077148,3632,3,73,,,,0,4,4,4,4,4,4,4,4,4,4,4,4,4,4,100,,,,,,,,,,,,,,,,,24,0,0.74649,-0.059143,-0.660889,0.049805,0.978531,-0.1626,0.117189,-25.271992,-100.340279,8.224613
1648680583,1648680583,97,0,4259.871582,4257.179688,4259.615234,4253.461426,4283.589844,4269.615234,4246.538574,4263.461426,4257.94873,4276.538574,4263.846191,4230.128418,4255.512695,4263.077148,3634,3,73,,,,0,4,4,4,4,4,4,4,4,4,4,4,4,4,4,100,,,,,,,,,,,,,,,,,,,,,,,,,,,,
1648680583,1648680583,98,0,4252.179688,4249.871582,4256.794922,4248.461426,4263.846191,4261.538574,4238.077148,4250.128418,4248.461426,4255.897461,4255.256348,4219.358887,4234.487305,4255.384766,3625,3,73,,,,0,4,4,4,4,4,4,4,4,4,4,4,4,4,4,100,,,,,,,,,,,,,,,,,,,,,,,,,,,,
1648680583,1648680583,99,0,4246.282227,4247.179688,4245.384766,4248.717773,4237.94873,4244.358887,4218.333496,4233.077148,4234.358887,4223.077148,4238.333496,4203.589844,4222.05127,4243.846191,3624,3,73,,,,0,4,4,4,4,4,4,4,4,4,4,4,4,4,4,100,,,,,,,,,,,,,,,,,,,,,,,,,,,,
1648680583,1648680583,100,0,4243.974121,4247.563965,4238.589844,4246.153809,4251.922852,4245.769043,4215.512695,4229.743652,4226.666504,4222.820313,4229.615234,4196.922852,4223.974121,4233.846191,3632,3,73,,,,0,4,4,4,4,4,4,4,4,4,4,4,4,4,4,100,,,,,,,,,,,,,,,,,25,0,0.746469,-0.059509,-0.660889,0.049683,0.986343,-0.157229,0.11133,-27.066454,-100.190735,6.57969
1648680583,1648680583,101,0,4247.436035,4254.102539,4248.205078,4248.333496,4288.205078,4270.256348,4234.743652,4244.230957,4237.436035,4237.179688,4238.846191,4206.538574,4230.384766,4241.922852,3634,3,73,,,,0,4,4,4,4,4,4,4,4,4,4,4,4,4,4,100,,,,,,,,,,,,,,,,,,,,,,,,,,,,
1648680583,1648680583,102,0,4241.666504,4248.974121,4245.384766,4249.358887,4279.615234,4266.282227,4228.974121,4241.410156,4235.384766,4232.179688,4238.077148,4208.205078,4228.077148,4243.974121,3625,3,73,,,,0,4,4,4,4,4,4,4,4,4,4,4,4,4,4,100,,,,,,,,,,,,,,,,,,,,,,,,,,,,
1648680583,1648680583,103,0,4239.615234,4241.538574,4238.077148,4245.641113,4257.307617,4251.153809,4218.205078,4234.102539,4226.794922,4234.230957,4231.666504,4203.589844,4231.922852,4235.641113,3624,3,73,,,,0,4,4,4,4,4,4,4,4,4,4,4,4,4,4,100,,,,,,,,,,,,,,,,,,,,,,,,,,,,
1648680583,1648680583,104,0,4239.230957,4238.717773,4236.538574,4235.128418,4260.512695,4250.384766,4219.743652,4236.794922,4232.692383,4238.846191,4230.384766,4199.487305,4238.974121,4231.666504,3632,3,73,,,,0,4,4,4,4,4,4,4,4,4,4,4,4,4,4,100,,,,,,,,,,,,,,,,,26,0,0.746513,-0.059692,-0.660828,0.049622,0.988296,-0.163088,0.111818,-23.327993,-99.592583,9.271381
1648680583,1648680583,105,0,4247.563965,4258.333496,4246.922852,4243.461426,4276.282227,4259.487305,4227.563965,4248.205078,4251.025879,4241.922852,4245.256348,4209.230957,4241.153809,4245.769043,3634,3,73,,,,0,4,4,4,4,4,4,4,4,4,4,4,4,4,4,100,,,,,,,,,,,,,,,,,,,,,,,,,,,,
1648680583,1648680583,106,0,4244.358887,4259.358887,4244.487305,4249.230957,4255.256348,4251.794922,4220.641113,4244.358887,4246.666504,4245.256348,4249.871582,4208.077148,4217.692383,4241.794922,3625,3,73,,,,0,4,4,4,4,4,4,4,4,4,4,4,4,4,4,100,,,,,,,,,,,,,,,,,,,,,,,,,,,,
1648680583,1648680583,107,0,4230.641113,4232.94873,4229.743652,4232.307617,4229.102539,4239.358887,4212.692383,4231.025879,4229.487305,4241.025879,4236.538574,4194.230957,4211.666504,4223.077148,3624,3,73,,,,0,4,4,4,4,4,4,4,4,4,4,4,4,4,4,100,,,,,,,,,,,,,,,,,,,,,,,,,,,,
1648680583,1648680583,108,0,4244.102539,4238.589844,4244.615234,4236.922852,4262.820313,4251.922852,4226.794922,4247.692383,4245.128418,4242.436035,4246.282227,4211.025879,4258.589844,4242.436035,3632,3,73,,,,0,4,4,4,4,4,4,4,4,4,4,4,4,4,4,100,,,,,,,,,,,,,,,,,27,0,0.746737,-0.059692,-0.660583,0.0495,0.977066,-0.158206,0.110842,-23.028915,-98.695351,9.121843
1648680583,1648680583,109,0,4257.692383,4259.102539,4260.384766,4255.769043,4291.538574,4262.05127,4235.384766,4259.230957,4256.410156,4242.436035,4254.487305,4222.820313,4271.538574,4259.230957,3634,3,73,,,,0,4,4,4,4,4,4,4,4,4,4,4,4,4,4,100,,,,,,,,,,,,,,,,,,,,,,,,,,,,
1648680583,1648680583,110,0,4267.307617,4263.461426,4267.94873,4269.487305,4279.743652,4270.641113,4242.179688,4261.538574,4260.512695,4253.333496,4257.563965,4226.153809,4259.487305,4261.153809,3625,3,73,,,,0,4,4,4,4,4,4,4,4,4,4,4,4,4,4,100,,,,,,,,,,,,,,,,,,,,,,,,,,,,
1648680583,1648680583,111,0,4281.922852,4263.846191,4278.717773,4276.666504,4283.333496,4278.077148,4250,4272.94873,4273.077148,4269.743652,4269.743652,4241.666504,4276.025879,4273.717773,3624,3,73,,,,0,4,4,4,4,4,4,4,4,4,4,4,4,4,4,100,,,,,,,,,,,,,,,,,,,,,,,,,,,,
1648680583,1648680583,112,0,4293.717773,4268.846191,4292.820313,4283.077148,4302.436035,4281.538574,4254.743652,4285.769043,4288.717773,4287.94873,4289.615234,4260.256348,4281.025879,4293.974121,3632,3,73,,,,0,4,4,4,4,4,4,4,4,4,4,4,4,4,4,100,,,,,,,,,,,,,,,,,28,0,0.746902,-0.059753,-0.6604,0.049377,0.994644,-0.163577,0.12549,-24.5243,-99.29351,8.523689
1648680583,1648680583,113,0,4273.846191,4256.794922,4275.384766,4265.512695,4268.846191,4263.589844,4235.512695,4255.256348,4264.615234,4271.666504,4272.692383,4240.128418,4241.922852,4274.230957,3634,3,73,,,,0,4,4,4,4,4,4,4,4,4,4,4,4,4,4,100,,,,,,,,,,,,,,,,,,,,,,,,,,,,
1648680583,1648680583,114,0,4277.820313,4266.922852,4275.512695,4271.282227,4272.05127,4270.128418,4236.282227,4245.897461,4254.358887,4257.436035,4268.461426,4239.358887,4252.94873,4274.230957,3625,3,73,,,,0,4,4,4,4,4,4,4,4,4,4,4,4,4,4,100,,,,,,,,,,,,,,,,,,,,,,,,,,,,
1648680583,1648680583,115,0,4284.230957,4272.436035,4283.846191,4281.025879,4303.333496,4281.025879,4244.743652,4261.282227,4263.333496,4256.666504,4273.717773,4249.230957,4280.128418,4286.666504,3624,3,73,,,,0,4,4,4,4,4,4,4,4,4,4,4,4,4,4,100,,,,,,,,,,,,,,,,,,,,,,,,,,,,
1648680583,1648680583,116,0,4275.512695,4263.461426,4280.769043,4278.077148,4298.461426,4281.538574,4246.410156,4264.358887,4268.717773,4267.563965,4269.871582,4247.05127,4275.384766,4282.05127,3632,3,73,,,,0,4,4,4,4,4,4,4,4,4,4,4,4,4,4,100,,,,,,,,,,,,,,,,,29,0,0.74696,-0.059753,-0.660339,0.049316,0.995132,-0.151858,0.1084,-23.477531,-99.742119,7.626459
1648680583,1648680583,117,0,4266.282227,4256.794922,4268.461426,4266.922852,4281.794922,4275.769043,4238.333496,4250.128418,4257.94873,4263.077148,4261.794922,4234.743652,4256.282227,4268.077148,3634,3,73,,,,0,4,4,4,4,4,4,4,4,4,4,4,4,4,4,100,,,,,,,,,,,,,,,,,,,,,,,,,,,,
1648680583,1648680583,118,0,4272.05127,4260.641113,4269.615234,4270.128418,4291.153809,4283.846191,4243.333496,4256.410156,4262.05127,4262.307617,4268.077148,4232.94873,4262.05127,4268.846191,3625,3,73,,,,0,4,4,4,4,4,4,4,4,4,4,4,4,4,4,100,,,,,,,,,,,,,,,,,,,,,,,,,,,,
1648680583,1648680583,119,0,4264.871582,4253.205078,4263.846191,4265.512695,4281.794922,4279.230957,4242.179688,4261.794922,4270.897461,4265,4264.358887,4226.025879,4264.871582,4260.384766,3624,3,73,,,,0,4,4,4,4,4,4,4,4,4,4,4,4,4,4,100,,,,,,,,,,,,,,,,,,,,,,,,,,,,
1648680583,1648680583,120,0,4257.179688,4253.589844,4258.077148,4259.487305,4278.333496,4272.05127,4239.230957,4260.512695,4274.615234,4263.461426,4260.641113,4223.461426,4267.436035,4257.436035,3632,3,73,,,,0,4,4,4,4,4,4,4,4,4,4,4,4,4,4,100,,,,,,,,,,,,,,,,,30,0,0.746973,-0.059692,-0.660339,0.049194,0.988296,-0.158694,0.12842,-24.673838,-100.190735,7.925536
1648680583,1648680583,121,0,4254.230957,4250.384766,4255.641113,4257.820313,4291.538574,4267.179688,4236.025879,4259.358887,4265.256348,4257.563965,4263.333496,4225.512695,4268.077148,4262.94873,3634,3,73,,,,0,4,4,4,4,4,4,4,4,4,4,4,4,4,4,100,,,,,,,,,,,,,,,,,,,,,,,,,,,,
1648680583,1648680583,122,0,4253.077148,4243.077148,4250.641113,4258.461426,4281.025879,4257.436035,4229.615234,4248.461426,4248.974121,4254.871582,4260.384766,4221.410156,4255.641113,4256.794922,3625,3,73,,,,0,4,4,4,4,4,4,4,4,4,4,4,4,4,4,100,,,,,,,,,,,,,,,,,,,,,,,,,,,,
1648680583,1648680583,123,0,4255.897461,4253.333496,4252.563965,4263.461426,4264.743652,4254.102539,4229.230957,4238.461426,4246.282227,4263.333496,4260.512695,4220.512695,4244.743652,4251.538574,3624,3,73,,,,0,4,4,4,4,4,4,4,4,4,4,4,4,4,4,100,,,,,,,,,,,,,,,,,,,,,,,,,,,,
1648680583,1648680583,124,0,4259.615234,4264.743652,4260.512695,4262.563965,4273.717773,4257.820313,4232.179688,4238.333496,4247.05127,4256.794922,4263.974121,4223.846191,4241.153809,4258.333496,3632,3,73,,,,0,4,4,4,4,4,4,4,4,4,4,4,4,4,4,100,,,,,,,,,,,,,,,,,31,0,0.747043,-0.059692,-0.660278,0.04895,0.985855,-0.145998,0.112795,-24.225224,-101.686119,6.878767
1648680583,1648680583,125,0,4262.820313,4255.128418,4264.230957,4259.871582,4274.743652,4257.94873,4232.179688,4244.487305,4246.794922,4238.974121,4262.692383,4231.538574,4253.205078,4268.846191,3634,3,73,,,,0,4,4,4,4,4,4,4,4,4,4,4,4,4,4,100,,,,,,,,,,,,,,,,,,,,,,,,,,,,
1648680583,1648680583,126,0,4253.589844,4239.871582,4252.179688,4249.871582,4250,4249.615234,4225,4236.922852,4242.820313,4233.461426,4246.666504,4227.563965,4260.897461,4260.897461,3625,3,73,,,,0,4,4,4,4,4,4,4,4,4,4,4,4,4,4,100,,,,,,,,,,,,,,,,,,,,,,,,,,,,
1648680583,1648680583,127,0,4263.205078,4255.512695,4262.436035,4258.333496,4269.358887,4267.563965,4237.94873,4250,4260.641113,4258.974121,4256.410156,4236.922852,4270.384766,4266.666504,55,3,73,,,,0,4,4,4,4,4,4,4,4,4,4,4,4,4,4,100,,,,,,,,,,,,,,,,,,,,,,,,,,,,
1648680583,1648680583,0,0,4270,4264.358887,4270.769043,4265.641113,4294.487305,4273.589844,4242.179688,4263.205078,4265.384766,4254.615234,4266.282227,4239.487305,4253.589844,4267.05127,3625,3,73,,,,0,4,4,4,4,4,4,4,4,4,4,4,4,4,4,100,,,,,,,,,,,,,,,,,0,0,0.746974,-0.059509,-0.6604,0.048584,0.99855,-0.157229,0.114748,-24.225224,-99.143967,7.925536
1648680583,1648680583,1,0,4271.410156,4260.256348,4273.974121,4272.94873,4289.487305,4267.692383,4240.256348,4268.077148,4266.410156,4252.563965,4263.717773,4241.922852,4246.794922,4265.384766,3603,3,73,,,,0,4,4,4,4,4,4,4,4,4,4,4,4,4,4,100,,,,,,,,,,,,,,,,,,,,,,,,,,,,
1648680583,1648680583,2,0,4266.282227,4252.563965,4268.077148,4265.256348,4272.94873,4261.025879,4234.487305,4259.230957,4263.589844,4270.641113,4254.487305,4238.974121,4261.410156,4265.641113,3616,3,73,,,,0,4,4,4,4,4,4,4,4,4,4,4,4,4,4,100,,,,,,,,,,,,,,,,,,,,,,,,,,,,
1648680583,1648680583,3,0,4279.358887,4262.563965,4275.512695,4270.769043,4289.487305,4272.436035,4243.077148,4264.615234,4270.384766,4281.794922,4270.128418,4246.794922,4288.077148,4281.538574,3086,3,73,,,,0,4,4,4,4,4,4,4,4,4,4,4,4,4,4,100,,,,,,,,,,,,,,,,,,,,,,,,,,,,
1648680583,1648680583,4,0,4275.769043,4258.461426,4268.461426,4268.589844,4285.641113,4265.641113,4240.512695,4260,4264.871582,4257.820313,4272.692383,4240.512695,4280.641113,4277.436035,3683,3,73,,,,0,4,4,4,4,4,4,4,4,4,4,4,4,4,4,100,,,,,,,,,,,,,,,,,1,0,0.747055,-0.059265,-0.660339,0.048462,0.986343,-0.150881,0.115236,-23.477531,-99.443047,7.626459
1648680583,1648680583,5,0,4272.436035,4257.307617,4266.410156,4265.128418,4280.897461,4268.077148,4244.102539,4262.307617,4266.410156,4260,4273.205078,4240.897461,4280.641113,4276.410156,3636,3,73,,,,0,4,4,4,4,4,4,4,4,4,4,4,4,4,4,100,,,,,,,,,,,,,,,,,,,,,,,,,,,,
1648680583,1648680583,6,0,4266.666504,4251.538574,4261.538574,4255.128418,4275.384766,4271.538574,4239.743652,4257.692383,4258.974121,4271.025879,4264.743652,4233.205078,4286.153809,4268.974121,3431,3,73,,,,0,4,4,4,4,4,4,4,4,4,4,4,4,4,4,100,,,,,,,,,,,,,,,,,,,,,,,,,,,,
1648680583,1648680583,7,0,4259.871582,4250.641113,4253.974121,4250.384766,4264.615234,4265.256348,4233.205078,4247.820313,4250.769043,4259.487305,4257.94873,4224.230957,4274.358887,4258.717773,3595,3,73,,,,0,4,4,4,4,4,4,4,4,4,4,4,4,4,4,100,,,,,,,,,,,,,,,,,,,,,,,,,,,,
1648680583,1648680583,8,0,4264.871582,4259.871582,4259.102539,4258.205078,4279.615234,4266.794922,4236.282227,4255.512695,4263.974121,4258.205078,4277.179688,4237.436035,4275.384766,4273.717773,3584,3,73,,,,0,4,4,4,4,4,4,4,4,4,4,4,4,4,4,100,,,,,,,,,,,,,,,,,2,0,0.747248,-0.059021,-0.660156,0.048279,0.974624,-0.151369,0.11426,-24.823378,-98.844894,7.476921
1648680583,1648680583,9,0,4272.94873,4261.538574,4270.128418,4269.615234,4297.820313,4274.102539,4243.974121,4263.333496,4269.487305,4267.563965,4291.538574,4250.512695,4293.717773,4289.871582,3641,3,73,,,,0,4,4,4,4,4,4,4,4,4,4,4,4,4,4,100,,,,,,,,,,,,,,,,,,,,,,,,,,,,
1648680583,1648680583,10,0,4266.153809,4247.179688,4264.487305,4263.717773,4278.077148,4262.179688,4236.538574,4246.922852,4248.589844,4253.077148,4270.897461,4236.025879,4293.461426,4273.846191,3628,3,73,,,,0,4,4,4,4,4,4,4,4,4,4,4,4,4,4,100,,,,,,,,,,,,,,,,,,,,,,,,,,,,
1648680583,1648680583,11,0,4262.820313,4245,4255.641113,4250.769043,4263.077148,4251.666504,4233.461426,4237.94873,4234.743652,4243.333496,4260.897461,4226.410156,4285.897461,4263.461426,3639,3,73,,,,0,4,4,4,4,4,4,4,4,4,4,4,4,4,4,100,,,,,,,,,,,,,,,,,,,,,,,,,,,,
1648680583,1648680583,12,0,4278.333496,4261.153809,4269.230957,4266.153809,4281.410156,4267.436035,4250.256348,4253.974121,4244.358887,4261.794922,4282.307617,4246.922852,4286.282227,4280.128418,3646,3,73,,,,0,4,4,4,4,4,4,4,4,4,4,4,4,4,4,100,,,,,,,,,,,,,,,,,3,0,0.747478,-0.059082,-0.659912,0.047974,0.993667,-0.147463,0.129397,-25.42153,-99.742119,7.327382
1648680583,1648680583,13,0,4273.077148,4254.743652,4267.563965,4270,4273.717773,4261.666504,4247.05127,4243.205078,4238.717773,4247.179688,4274.615234,4244.230957,4264.230957,4271.153809,3635,3,73,,,,0,4,4,4,4,4,4,4,4,4,4,4,4,4,4,100,,,,,,,,,,,,,,,,,,,,,,,,,,,,
1648680583,1648680583,14,0,4265.897461,4246.153809,4262.563965,4259.487305,4270.769043,4256.794922,4244.102539,4241.153809,4246.153809,4240,4267.563965,4237.307617,4269.358887,4267.436035,3628,3,73,,,,0,4,4,4,4,4,4,4,4,4,4,4,4,4,4,100,,,,,,,,,,,,,,,,,,,,,,,,,,,,
1648680583,1648680583,15,0,4262.563965,4246.153809,4261.410156,4251.025879,4274.615234,4265.897461,4248.589844,4248.589844,4250,4256.666504,4264.230957,4233.846191,4301.153809,4268.461426,3639,3,73,,,,0,4,4,4,4,4,4,4,4,4,4,4,4,4,4,100,,,,,,,,,,,,,,,,,,,,,,,,,,,,
1648680583,1648680583,16,0,4264.743652,4252.179688,4263.974121,4258.589844,4267.94873,4270.512695,4251.922852,4245.256348,4243.077148,4253.974121,4254.615234,4229.871582,4300.512695,4262.94873,0,3,73,,,,0,4,4,4,4,4,4,4,4,4,4,4,4,4,4,100,,,,,,,,,,,,,,,,,4,0,0.74752,-0.059387,-0.659851,0.047791,0.983413,-0.149416,0.121584,-25.271992,-100.340279,7.775998
1648680583,1648680583,17,0,4257.692383,4248.205078,4254.102539,4253.461426,4262.692383,4255.512695,4240.641113,4236.922852,4236.666504,4226.666504,4245.256348,4218.333496,4256.410156,4249.871582,0,3,73,,,,0,4,4,4,4,4,4,4,4,4,4,4,4,4,4,100,,,,,,,,,,,,,,,,,,,,,,,,,,,,
1648680583,1648680583,18,0,4258.205078,4248.974121,4253.846191,4252.820313,4282.179688,4261.410156,4244.102539,4251.794922,4249.487305,4244.615234,4262.436035,4226.153809,4250.256348,4258.077148,0,3,73,,,,0,4,4,4,4,4,4,4,4,4,4,4,4,4,4,100,,,,,,,,,,,,,,,,,,,,,,,,,,,,
1648680583,1648680583,19,0,4249.230957,4242.307617,4248.205078,4247.179688,4273.333496,4257.307617,4241.153809,4244.871582,4243.077148,4256.025879,4260.769043,4226.282227,4266.025879,4260.769043,0,3,73,,,,0,4,4,4,4,4,4,4,4,4,4,4,4,4,4,100,,,,,,,,,,,,,,,,,,,,,,,,,,,,
1648680583,1648680583,20,0,4254.230957,4245,4255,4248.333496,4263.077148,4250.256348,4242.563965,4242.436035,4241.666504,4246.282227,4260.512695,4230,4282.94873,4265.897461,0,3,73,,,,0,4,4,4,4,4,4,4,4,4,4,4,4,4,4,100,,,,,,,,,,,,,,,,,5,1,0.747512,-0.059428,-0.659871,0.047587,0.985855,-0.147626,0.120119,-25.371685,-100.439972,8.025229
1648680583,1648680583,21,0,4258.205078,4245.641113,4258.717773,4246.282227,4261.410156,4246.025879,4237.563965,4247.820313,4247.692383,4244.358887,4263.205078,4227.820313,4284.102539,4261.410156,0,3,73,,,,0,4,4,4,4,4,4,4,4,4,4,4,4,4,4,100,,,,,,,,,,,,,,,,,,,,,,,,,,,,
1648680583,1648680583,22,0,4261.025879,4249.871582,4260.128418,4251.282227,4261.538574,4252.436035,4236.538574,4249.230957,4251.794922,4258.589844,4264.743652,4228.974121,4287.820313,4261.794922,0,3,73,,,,0,4,4,4,4,4,4,4,4,4,4,4,4,4,4,100,,,,,,,,,,,,,,,,,,,,,,,,,,,,
1648680583,1648680583,23,0,4263.717773,4250.897461,4261.922852,4255.512695,4265.897461,4257.820313,4242.692383,4250.769043,4254.230957,4266.025879,4269.743652,4238.205078,4291.410156,4272.820313,0,3,73,,,,0,4,4,4,4,4,4,4,4,4,4,4,4,4,4,100,,,,,,,,,,,,,,,,,,,,,,,,,,,,
1648680583,1648680583,24,1,4263.663086,4251.685059,4262.655762,4256.300293,4269.157715,4259.01123,4243.882813,4252.600586,4255.183105,4265.183105,4269.395508,4237.436035,4287.014648,4271.941406,0,3,73,,,,0,4,4,4,4,4,4,4,4,4,4,4,4,4,4,100,,,,,,,,,,,,,,,,,6,1,0.747503,-0.059469,-0.659892,0.047384,0.988296,-0.145836,0.118654,-25.471376,-100.539658,8.274459
1648680583,1648680583,25,1,4263.60791,4252.472656,4263.388184,4257.087891,4272.41748,4260.20166,4245.073242,4254.432129,4256.135742,4264.34082,4269.047852,4236.666504,4282.619141,4271.0625,0,3,73,,,,0,4,4,4,4,4,4,4,4,4,4,4,4,4,4,100,,,,,,,,,,,,,,,,,,,,,,,,,,,,
1648680583,1648680583,26,1,4263.553223,4253.260254,4264.121094,4257.875488,4275.677734,4261.39209,4246.263672,4256.263672,4257.087891,4263.498047,4268.699707,4235.897461,4278.223633,4270.183105,0,3,73,,,,0,4,4,4,4,4,4,4,4,4,4,4,4,4,4,100,,,,,,,,,,,,,,,,,,,,,,,,,,,,
1648680583,1648680583,27,1,4263.498047,4254.047852,4264.853516,4258.663086,4278.9375,4262.58252,4247.454102,4258.095215,4258.040527,4262.655762,4268.351563,4235.128418,4273.827637,4269.304199,0,3,73,,,,0,4,4,4,4,4,4,4,4,4,4,4,4,4,4,100,,,,,,,,,,,,,,,,,,,,,,,,,,,,
1648680583,1648680583,28,1,4263.443359,4254.834961,4265.585938,4259.450684,4282.197754,4263.772949,4248.644531,4259.926758,4258.992676,4261.812988,4268.003906,4234.358887,4269.432129,4268.424805,0,3,73,,,,0,4,4,4,4,4,4,4,4,4,4,4,4,4,4,100,,,,,,,,,,,,,,,,,7,0,0.747495,-0.059509,-0.659912,0.04718,0.990738,-0.144045,0.117189,-25.57107,-100.639351,8.523689
1648680583,1648680583,29,1,4263.388184,4255.622559,4266.318848,4260.238281,4285.458008,4264.963379,4249.834961,4261.758301,4259.944824,4260.970703,4267.655762,4233.589844,4265.036621,4267.545898,0,3,73,,,,0,4,4,4,4,4,4,4,4,4,4,4,4,4,4,100,0.976563,83.333336,4,4,4,4,3,4,4,4,4,4,4,4,3,4,,,,,,,,,,,,
1648680583,1648680583,30,0,4263.333496,4256.410156,4267.05127,4261.025879,4288.717773,4266.153809,4251.025879,4263.589844,4260.897461,4260.128418,4267.307617,4232.820313,4260.641113,4266.666504,0,3,73,,,,0,4,4,4,4,4,4,4,4,4,4,4,4,4,4,100,,,,,,,,,,,,,,,,,,,,,,,,,,,,
1648680583,1648680583,31,0,4266.794922,4252.820313,4270.256348,4261.153809,4285,4271.922852,4255.641113,4272.436035,4268.846191,4277.05127,4283.333496,4242.307617,4258.205078,4273.589844,0,3,73,,,,0,4,4,4,4,4,4,4,4,4,4,4,4,4,4,100,,,,,,,,,,,,,,,,,,,,,,,,,,,,
1648680583,1648680583,32,0,4260.256348,4247.692383,4251.666504,4250.128418,4271.538574,4264.615234,4246.410156,4262.179688,4256.538574,4264.743652,4273.205078,4231.922852,4269.871582,4264.102539,0,3,73,,,,0,4,4,4,4,4,4,4,4,4,4,4,4,4,4,100,,,,,,,,,,,,,,,,,8,0,0.747482,-0.059143,-0.659973,0.046997,0.995621,-0.146487,0.11426,-23.327993,-99.29351,10.019073
1648680583,1648680583,33,0,4261.666504,4256.794922,4253.333496,4264.102539,4278.461426,4270.769043,4249.743652,4261.282227,4266.538574,4254.487305,4251.538574,4227.692383,4305.641113,4263.589844,0,3,73,,,,0,4,4,4,4,4,4,4,4,4,4,4,4,4,4,100,,,,,,,,,,,,,,,,,,,,,,,,,,,,
1648680583,1648680583,34,0,4252.563965,4251.794922,4249.487305,4260.128418,4267.307617,4264.102539,4241.538574,4251.538574,4256.025879,4243.589844,4233.077148,4215.769043,4277.307617,4250,0,3,73,,,,0,4,4,4,4,4,4,4,4,4,4,4,4,4,4,100,,,,,,,,,,,,,,,,,,,,,,,,,,,,
1648680583,1648680583,35,0,4263.205078,4260.897461,4256.025879,4261.410156,4274.102539,4264.230957,4238.717773,4257.436035,4249.358887,4250.897461,4260.384766,4226.025879,4239.615234,4259.230957,0,3,73,,,,0,4,4,4,4,4,4,4,4,4,4,4,4,4,4,100,,,,,,,,,,,,,,,,,,,,,,,,,,,,
1648680583,1648680583,36,0,4264.358887,4261.282227,4259.358887,4267.94873,4278.717773,4260.512695,4236.922852,4256.794922,4256.666504,4253.461426,4267.436035,4226.922852,4251.794922,4265.769043,0,3,73,,,,0,4,4,4,4,4,4,4,4,4,4,4,4,4,4,100,,,,,,,,,,,,,,,,,9,0,0.747437,-0.058533,-0.660095,0.046753,0.99025,-0.14844,0.112795,-26.169222,-101.237503,8.673228
1648680583,1648680583,37,0,4254.871582,4253.077148,4254.743652,4268.846191,4275.769043,4266.282227,4243.205078,4248.205078,4258.077148,4255.897461,4247.94873,4213.974121,4265.256348,4256.538574,0,3,73,,,,0,4,4,4,4,4,4,4,4,4,4,4,4,4,4,100,,,,,,,,,,,,,,,,,,,,,,,,,,,,
1648680583,1648680583,38,0,4244.358887,4247.436035,4243.333496,4253.974121,4274.102539,4269.871582,4242.307617,4240,4242.179688,4252.692383,4237.307617,4207.820313,4254.230957,4243.205078,0,3,73,,,,0,4,4,4,4,4,4,4,4,4,4,4,4,4,4,100,,,,,,,,,,,,,,,,,,,,,,,,,,,,
1648680583,1648680583,39,0,4241.538574,4245.641113,4240.512695,4242.307617,4271.282227,4263.589844,4237.820313,4238.974121,4236.666504,4241.794922,4240.897461,4212.692383,4254.230957,4244.487305,0,3,73,,,,0,4,4,4,4,4,4,4,4,4,4,4,4,4,4,100,,,,,,,,,,,,,,,,,,,,,,,,,,,,
1648680583,1648680583,40,0,4242.692383,4241.538574,4242.307617,4237.05127,4260,4255,4232.820313,4233.589844,4234.871582,4232.563965,4242.692383,4208.589844,4242.307617,4246.282227,0,3,73,,,,0,4,4,4,4,4,4,4,4,4,4,4,4,4,4,100,,,,,,,,,,,,,,,,,10,0,0.747674,-0.057861,-0.659912,0.046387,0.986831,-0.138674,0.124514,-25.271992,-98.844894,8.224613
1648680583,1648680583,41,0,4248.846191,4247.563965,4246.410156,4238.846191,4258.974121,4261.282227,4236.666504,4232.563965,4237.820313,4238.974121,4243.205078,4207.692383,4237.05127,4244.743652,0,3,73,,,,0,4,4,4,4,4,4,4,4,4,4,4,4,4,4,100,,,,,,,,,,,,,,,,,,,,,,,,,,,,
1648680583,1648680583,42,0,4247.05127,4250.769043,4246.922852,4242.820313,4267.307617,4265.256348,4240.512695,4241.025879,4250.897461,4252.94873,4241.922852,4215.256348,4262.94873,4245,0,3,73,,,,0,4,4,4,4,4,4,4,4,4,4,4,4,4,4,100,,,,,,,,,,,,,,,,,,,,,,,,,,,,
1648680583,1648680583,43,0,4237.307617,4243.205078,4239.743652,4241.153809,4263.974121,4255.897461,4235.897461,4242.307617,4251.153809,4251.794922,4241.794922,4213.717773,4267.563965,4243.974121,0,3,73,,,,0,4,4,4,4,4,4,4,4,4,4,4,4,4,4,100,,,,,,,,,,,,,,,,,,,,,,,,,,,,
1648680583,1648680583,44,0,4250.641113,4250.769043,4250.769043,4251.153809,4268.846191,4261.794922,4242.179688,4252.05127,4258.077148,4258.333496,4262.436035,4224.871582,4253.333496,4256.538574,0,3,73,,,,0,4,4,4,4,4,4,4,4,4,4,4,4,4,4,100,,,,,,,,,,,,,,,,,11,0,0.747937,-0.05719,-0.659668,0.046448,0.990738,-0.143557,0.115724,-25.870146,-101.237503,8.374151
1648680583,1648680583,45,0,4256.922852,4257.307617,4253.974121,4249.358887,4267.307617,4261.922852,4239.743652,4249.230957,4257.692383,4257.179688,4256.666504,4223.974121,4255.641113,4255,0,3,73,,,,0,4,4,4,4,4,4,4,4,4,4,4,4,4,4,100,,,,,,,,,,,,,,,,,,,,,,,,,,,,
1648680583,1648680583,46,0,4252.307617,4251.153809,4249.358887,4244.615234,4263.974121,4260.384766,4238.461426,4247.94873,4253.205078,4253.205078,4235.128418,4215,4282.179688,4249.615234,0,3,73,,,,0,4,4,4,4,4,4,4,4,4,4,4,4,4,4,100,,,,,,,,,,,,,,,,,,,,,,,,,,,,
1648680583,1648680583,47,0,4238.333496,4243.461426,4237.692383,4239.358887,4255.769043,4253.974121,4238.461426,4245.512695,4242.307617,4241.025879,4228.589844,4204.871582,4273.717773,4241.410156,0,3,73,,,,0,4,4,4,4,4,4,4,4,4,4,4,4,4,4,100,,,,,,,,,,,,,,,,,,,,,,,,,,,,
1648680583,1648680583,48,0,4247.94873,4263.205078,4242.820313,4251.922852,4257.820313,4255.256348,4240.512695,4243.077148,4243.333496,4242.179688,4246.922852,4212.436035,4246.666504,4252.05127,0,3,73,,,,0,4,4,4,4,4,4,4,4,4,4,4,4,4,4,100,,,,,,,,,,,,,,,,,12,0,0.748338,-0.056213,-0.659302,0.046387,1.009293,-0.150393,0.12842,-23.327993,-99.29351,7.476921
1648680583,1648680583,49,0,4255.641113,4271.666504,4243.461426,4253.077148,4253.974121,4247.94873,4230.769043,4229.230957,4237.307617,4240.128418,4247.179688,4210.384766,4233.205078,4258.974121,0,3,73,,,,0,4,4,4,4,4,4,4,4,4,4,4,4,4,4,100,,,,,,,,,,,,,,,,,,,,,,,,,,,,
1648680583,1648680583,50,0,4255.384766,4266.025879,4244.358887,4251.666504,4255.641113,4248.333496,4236.666504,4233.333496,4240.512695,4241.922852,4242.436035,4207.820313,4283.589844,4259.487305,0,3,73,,,,0,4,4,4,4,4,4,4,4,4,4,4,4,4,4,100,,,,,,,,,,,,,,,,,,,,,,,,,,,,
1648680583,1648680583,51,0,4246.025879,4255.256348,4236.922852,4247.436035,4250.256348,4243.974121,4238.974121,4234.358887,4239.487305,4235.897461,4236.153809,4201.025879,4327.94873,4248.205078,0,3,73,,,,0,4,4,4,4,4,4,4,4,4,4,4,4,4,4,100,,,,,,,,,,,,,,,,,,,,,,,,,,,,
1648680583,1648680583,52,0,4266.666504,4267.820313,4249.743652,4262.307617,4257.307617,4247.179688,4242.307617,4241.666504,4247.179688,4247.436035,4270.769043,4222.563965,4293.717773,4272.563965,0,3,73,,,,0,4,4,4,4,4,4,4,4,4,4,4,4,4,4,100,,,,,,,,,,,,,,,,,13,0,0.748839,-0.055054,-0.658813,0.046631,0.992203,-0.14551,0.140139,-24.673838,-98.695351,7.626459
1648680583,1648680583,53,0,4289.358887,4288.205078,4265.641113,4272.307617,4256.666504,4241.410156,4234.487305,4242.179688,4246.282227,4258.717773,4293.717773,4241.410156,4266.666504,4302.307617,0,3,73,,,,0,4,4,4,4,4,4,4,4,4,4,4,4,4,4,100,,,,,,,,,,,,,,,,,,,,,,,,,,,,
1648680583,1648680583,54,0,4291.153809,4295.897461,4266.282227,4269.871582,4255.256348,4239.487305,4232.179688,4231.666504,4233.589844,4252.692383,4272.692383,4235.512695,4317.179688,4298.077148,0,3,73,,,,0,4,4,4,4,4,4,4,4,4,4,4,4,4,4,100,,,,,,,,,,,,,,,,,,,,,,,,,,,,
1648680583,1648680583,55,0,4292.94873,4284.102539,4266.666504,4272.436035,4261.153809,4242.820313,4236.410156,4231.410156,4231.410156,4251.282227,4281.538574,4238.077148,4327.820313,4296.922852,0,3,73,,,,0,4,4,4,4,4,4,4,4,4,4,4,4,4,4,100,,,,,,,,,,,,,,,,,,,,,,,,,,,,
1648680583,1648680583,56,0,4300.256348,4276.666504,4277.692383,4281.666504,4262.307617,4240.512695,4237.05127,4240.128418,4245.128418,4260.641113,4302.563965,4250.384766,4318.589844,4315.512695,0,3,73,,,,0,4,4,4,4,4,4,4,4,4,4,4,4,4,4,100,,,,,,,,,,,,,,,,,14,0,0.74935,-0.053772,-0.658325,0.046814,0.993179,-0.144533,0.12256,-22.879377,-99.592583,7.775998
1648680583,1648680583,57,0,4284.615234,4271.410156,4268.205078,4269.230957,4251.794922,4233.077148,4229.230957,4232.307617,4241.025879,4248.205078,4271.794922,4234.871582,4337.436035,4300.769043,0,3,73,,,,0,4,4,4,4,4,4,4,4,4,4,4,4,4,4,100,,,,,,,,,,,,,,,,,,,,,,,,,,,,
1648680583,1648680583,58,0,4267.820313,4267.05127,4250.897461,4253.589844,4253.846191,4238.589844,4232.692383,4223.717773,4223.205078,4233.589844,4257.436035,4221.538574,4305.769043,4276.153809,0,3,73,,,,0,4,4,4,4,4,4,4,4,4,4,4,4,4,4,100,,,,,,,,,,,,,,,,,,,,,,,,,,,,
1648680583,1648680583,59,0,4273.846191,4265.512695,4259.102539,4265.641113,4268.333496,4252.563965,4247.436035,4242.307617,4233.717773,4250.384766,4280,4233.205078,4271.794922,4284.487305,0,3,73,,,,0,4,4,4,4,4,4,4,4,4,4,4,4,4,4,100,,,,,,,,,,,,,,,,,,,,,,,,,,,,
1648680583,1648680583,60,0,4260.384766,4257.820313,4252.692383,4262.436035,4258.461426,4242.692383,4244.743652,4245.641113,4240,4246.538574,4247.563965,4217.436035,4297.563965,4272.179688,0,3,73,,,,0,4,4,4,4,4,4,4,4,4,4,4,4,4,4,100,,,,,,,,,,,,,,,,,15,0,0.749612,-0.05304,-0.658081,0.046875,1.002945,-0.126955,0.135256,-23.327993,-99.29351,7.775998
1648680583,1648680583,61,0,4241.666504,4251.153809,4237.94873,4248.589844,4255.512695,4237.692383,4249.358887,4240,4237.05127,4231.794922,4212.820313,4203.974121,4320.512695,4250.512695,0,3,73,,,,0,4,4,4,4,4,4,4,4,4,4,4,4,4,4,100,,,,,,,,,,,,,,,,,,,,,,,,,,,,
1648680583,1648680583,62,0,4246.025879,4250.256348,4241.922852,4247.307617,4262.94873,4242.05127,4259.358887,4235,4231.153809,4230.512695,4229.230957,4213.077148,4293.589844,4255,0,3,73,,,,0,4,4,4,4,4,4,4,4,4,4,4,4,4,4,100,,,,,,,,,,,,,,,,,,,,,,,,,,,,
1648680583,1648680583,63,0,4265.897461,4260.897461,4257.94873,4261.025879,4270.384766,4250,4265.769043,4240.256348,4241.410156,4247.94873,4250.256348,4218.205078,4261.153809,4268.077148,0,3,73,,,,0,4,4,4,4,4,4,4,4,4,4,4,4,4,4,100,,,,,,,,,,,,,,,,,,,,,,,,,,,,
1648680583,1648680584,64,0,4251.025879,4244.871582,4241.794922,4244.871582,4261.025879,4245,4257.563965,4240.256348,4246.153809,4248.461426,4239.487305,4203.077148,4229.358887,4249.230957,3601,3,73,,,,0,4,4,4,4,4,4,4,4,4,4,4,4,4,4,100,,,,,,,,,,,,,,,,,16,0,0.749983,-0.051453,-0.657776,0.046997,1.004898,-0.138186,0.126467,-23.327993,-98.545815,6.280613
1648680584,1648680584,65,0,4238.974121,4232.179688,4238.077148,4235.128418,4261.538574,4248.205078,4258.077148,4247.563965,4253.205078,4250,4240.256348,4212.436035,4248.974121,4249.743652,3583,3,73,,,,0,4,4,4,4,4,4,4,4,4,4,4,4,4,4,100,,,,,,,,,,,,,,,,,,,,,,,,,,,,
1648680584,1648680584,66,0,4241.410156,4239.358887,4243.077148,4241.666504,4255.641113,4240.512695,4249.615234,4240,4242.563965,4243.461426,4231.153809,4213.077148,4267.820313,4256.538574,3583,3,73,,,,0,4,4,4,4,4,4,4,4,4,4,4,4,4,4,100,,,,,,,,,,,,,,,,,,,,,,,,,,,,
1648680584,1648680584,67,0,4261.794922,4258.205078,4255.256348,4258.717773,4263.333496,4244.487305,4255,4247.820313,4247.179688,4255.384766,4232.692383,4214.102539,4256.922852,4263.333496,3046,3,73,,,,0,4,4,4,4,4,4,4,4,4,4,4,4,4,4,100,,,,,,,,,,,,,,,,,,,,,,,,,,,,
1648680584,1648680584,68,0,4256.153809,4243.974121,4252.692383,4248.717773,4272.05127,4253.205078,4260.256348,4256.666504,4257.820313,4265.128418,4236.282227,4215.769043,4269.615234,4257.692383,3617,3,73,,,,0,4,4,4,4,4,4,4,4,4,4,4,4,4,4,100,,,,,,,,,,,,,,,,,17,0,0.750248,-0.049683,-0.657593,0.047241,0.989273,-0.128908,0.137209,-24.5243,-99.29351,6.729228
1648680584,1648680584,69,0,4236.410156,4235.512695,4242.692383,4234.487305,4276.666504,4257.692383,4259.743652,4253.333496,4256.922852,4257.307617,4239.615234,4215.897461,4281.153809,4249.487305,3591,3,73,,,,0,4,4,4,4,4,4,4,4,4,4,4,4,4,4,100,,,,,,,,,,,,,,,,,,,,,,,,,,,,
1648680584,1648680584,70,0,4231.410156,4245.384766,4236.794922,4239.487305,4272.05127,4255.384766,4256.025879,4246.538574,4242.436035,4241.922852,4232.94873,4206.538574,4214.358887,4239.743652,3381,3,73,,,,0,4,4,4,4,4,4,4,4,4,4,4,4,4,4,100,,,,,,,,,,,,,,,,,,,,,,,,,,,,
1648680584,1648680584,71,0,4243.205078,4245.128418,4246.538574,4252.05127,4274.871582,4263.205078,4262.94873,4254.871582,4241.153809,4240.897461,4222.94873,4205,4187.05127,4243.589844,3569,3,73,,,,0,4,4,4,4,4,4,4,4,4,4,4,4,4,4,100,,,,,,,,,,,,,,,,,,,,,,,,,,,,
1648680584,1648680584,72,0,4241.666504,4235.256348,4250.128418,4248.974121,4274.743652,4260.256348,4264.358887,4258.717773,4248.077148,4247.436035,4217.436035,4206.410156,4236.282227,4246.025879,3554,3,73,,,,0,4,4,4,4,4,4,4,4,4,4,4,4,4,4,100,,,,,,,,,,,,,,,,,18,0,0.750542,-0.048157,-0.657349,0.047546,0.99025,-0.123049,0.130861,-23.477531,-98.695351,9.121843
1648680584,1648680584,73,0,4237.307617,4236.922852,4248.205078,4246.025879,4274.358887,4253.205078,4265.256348,4260.384766,4255,4260.384766,4225.128418,4208.717773,4263.461426,4241.025879,3593,3,73,,,,0,4,4,4,4,4,4,4,4,4,4,4,4,4,4,100,,,,,,,,,,,,,,,,,,,,,,,,,,,,
1648680584,1648680584,74,0,4241.282227,4238.461426,4252.692383,4250.384766,4278.205078,4257.05127,4268.333496,4271.410156,4266.666504,4276.282227,4240.641113,4217.436035,4250.641113,4245.897461,3589,3,73,,,,0,4,4,4,4,4,4,4,4,4,4,4,4,4,4,100,,,,,,,,,,,,,,,,,,,,,,,,,,,,
1648680584,1648680584,75,0,4232.436035,4234.102539,4240.384766,4244.615234,4268.333496,4248.717773,4253.846191,4260,4261.922852,4263.846191,4233.333496,4211.025879,4240.897461,4245.384766,3583,3,73,,,,0,4,4,4,4,4,4,4,4,4,4,4,4,4,4,100,,,,,,,,,,,,,,,,,,,,,,,,,,,,
1648680584,1648680584,76,0,4236.153809,4244.871582,4237.94873,4248.846191,4272.307617,4248.717773,4251.538574,4251.794922,4261.025879,4259.487305,4234.743652,4214.230957,4253.077148,4249.743652,3590,3,73,,,,0,4,4,4,4,4,4,4,4,4,4,4,4,4,4,100,,,,,,,,,,,,,,,,,19,0,0.750733,-0.047241,-0.657166,0.047974,0.98146,-0.138674,0.133791,-22.879377,-98.545815,8.523689
1648680584,1648680584,77,0,4234.743652,4243.077148,4240.512695,4244.358887,4278.333496,4252.94873,4255,4252.692383,4255.897461,4265.256348,4229.743652,4212.05127,4257.94873,4244.230957,3589,3,73,,,,0,4,4,4,4,4,4,4,4,4,4,4,4,4,4,100,,,,,,,,,,,,,,,,,,,,,,,,,,,,
1648680584,1648680584,78,0,4225.256348,4230.769043,4241.538574,4239.230957,4282.436035,4259.230957,4255.897461,4255.512695,4252.692383,4270.897461,4220.897461,4205.897461,4262.05127,4239.230957,3589,3,73,,,,0,4,4,4,4,4,4,4,4,4,4,4,4,4,4,100,,,,,,,,,,,,,,,,,,,,,,,,,,,,
1648680584,1648680584,79,0,4225.641113,4238.077148,4237.563965,4242.179688,4277.05127,4253.461426,4251.666504,4245.256348,4248.333496,4258.333496,4233.589844,4204.230957,4222.94873,4236.282227,3583,3,73,,,,0,4,4,4,4,4,4,4,4,4,4,4,4,4,4,100,,,,,,,,,,,,,,,,,,,,,,,,,,,,
1648680584,1648680584,80,0,4245.512695,4262.820313,4250.641113,4257.820313,4282.563965,4256.153809,4260.256348,4245.641113,4252.05127,4255.256348,4251.410156,4215.128418,4213.461426,4246.794922,3590,3,73,,,,0,4,4,4,4,4,4,4,4,4,4,4,4,4,4,100,,,,,,,,,,,,,,,,,20,0,0.750771,-0.046448,-0.657166,0.048157,0.999039,-0.129397,0.136721,-25.870146,-97.947662,8.374151
1648680584,1648680584,81,0,4236.538574,4246.282227,4248.974121,4250.897461,4279.615234,4252.94873,4258.205078,4240.769043,4242.179688,4257.179688,4224.230957,4206.282227,4253.333496,4242.179688,3589,3,73,,,,0,4,4,4,4,4,4,4,4,4,4,4,4,4,4,100,,,,,,,,,,,,,,,,,,,,,,,,,,,,
1648680584,1648680584,82,0,4228.333496,4230.128418,4244.615234,4247.05127,4283.461426,4257.05127,4260,4247.94873,4245,4267.563965,4216.282227,4205.897461,4278.333496,4239.102539,3589,3,73,,,,0,4,4,4,4,4,4,4,4,4,4,4,4,4,4,100,,,,,,,,,,,,,,,,,,,,,,,,,,,,
1648680584,1648680584,83,0,4224.615234,4232.436035,4235.256348,4241.794922,4277.179688,4253.589844,4254.743652,4247.436035,4244.743652,4253.205078,4222.563965,4202.05127,4238.077148,4227.692383,3583,3,73,,,,0,4,4,4,4,4,4,4,4,4,4,4,4,4,4,100,,,,,,,,,,,,,,,,,,,,,,,,,,,,
1648680584,1648680584,84,0,4228.974121,4235,4236.153809,4241.922852,4272.94873,4254.487305,4254.871582,4246.538574,4243.589844,4241.666504,4223.461426,4201.538574,4214.230957,4229.358887,3590,3,73,,,,0,4,4,4,4,4,4,4,4,4,4,4,4,4,4,100,,,,,,,,,,,,,,,,,21,0,0.750759,-0.045837,-0.657227,0.048096,0.976577,-0.134279,0.127443,-22.430761,-97.798126,8.224613
1648680584,1648680584,85,0,4219.487305,4218.974121,4232.307617,4233.205078,4266.666504,4247.307617,4250.128418,4243.974121,4236.025879,4246.666504,4213.077148,4196.666504,4245.256348,4232.05127,3589,3,73,,,,0,4,4,4,4,4,4,4,4,4,4,4,4,4,4,100,,,,,,,,,,,,,,,,,,,,,,,,,,,,
1648680584,1648680584,86,0,4211.538574,4229.102539,4227.563965,4229.871582,4262.692383,4242.307617,4247.563965,4245.256348,4235.256348,4249.615234,4213.974121,4194.230957,4246.666504,4226.410156,3589,3,73,,,,0,4,4,4,4,4,4,4,4,4,4,4,4,4,4,100,,,,,,,,,,,,,,,,,,,,,,,,,,,,
1648680584,1648680584,87,0,4222.563965,4246.794922,4234.102539,4240.769043,4268.974121,4249.743652,4249.230957,4253.333496,4248.077148,4251.538574,4227.94873,4203.846191,4214.487305,4233.589844,3583,3,73,,,,0,4,4,4,4,4,4,4,4,4,4,4,4,4,4,100,,,,,,,,,,,,,,,,,,,,,,,,,,,,
1648680584,1648680584,88,0,4237.563965,4238.846191,4245.897461,4248.717773,4284.358887,4260.384766,4257.563965,4260.769043,4258.846191,4262.179688,4230.384766,4216.025879,4234.743652,4251.153809,3590,3,73,,,,0,4,4,4,4,4,4,4,4,4,4,4,4,4,4,100,,,,,,,,,,,,,,,,,22,0,0.750777,-0.045227,-0.657288,0.047546,0.99025,-0.127443,0.141115,-22.430761,-97.05043,7.775998
1648680584,1648680584,89,0,4231.153809,4223.461426,4241.410156,4232.820313,4278.333496,4253.461426,4257.820313,4252.94873,4248.846191,4257.436035,4210.641113,4207.05127,4272.820313,4243.077148,3589,3,73,,,,0,4,4,4,4,4,4,4,4,4,4,4,4,4,4,100,,,,,,,,,,,,,,,,,,,,,,,,,,,,
1648680584,1648680584,90,0,4220.512695,4229.230957,4232.692383,4220.897461,4263.717773,4245.769043,4251.153809,4242.436035,4233.205078,4246.410156,4205.897461,4194.871582,4252.692383,4227.94873,3589,3,73,,,,0,4,4,4,4,4,4,4,4,4,4,4,4,4,4,100,,,,,,,,,,,,,,,,,,,,,,,,,,,,
1648680584,1648680584,91,0,4225.512695,4243.333496,4239.871582,4238.717773,4274.358887,4255.256348,4255.384766,4252.692383,4240,4254.871582,4224.871582,4206.153809,4229.743652,4236.025879,3583,3,73,,,,0,4,4,4,4,4,4,4,4,4,4,4,4,4,4,100,,,,,,,,,,,,,,,,,,,,,,,,,,,,
1648680584,1648680584,92,0,4212.563965,4231.410156,4227.307617,4236.794922,4269.615234,4249.358887,4251.538574,4243.589844,4230,4237.820313,4195,4190.641113,4242.05127,4220.641113,3590,3,73,,,,0,4,4,4,4,4,4,4,4,4,4,4,4,4,4,100,,,,,,,,,,,,,,,,,23,0,0.7508,-0.044983,-0.657288,0.047424,0.988296,-0.120607,0.121096,-22.281223,-97.648582,9.121843
1648680584,1648680584,93,0,4213.461426,4229.358887,4225.128418,4231.922852,4270.897461,4251.794922,4254.871582,4240.512695,4230.769043,4233.589844,4188.846191,4185.128418,4241.025879,4218.846191,3589,3,73,,,,0,4,4,4,4,4,4,4,4,4,4,4,4,4,4,100,0.976563,83.333336,4,4,4,4,3,4,4,4,4,4,4,4,3,4,,,,,,,,,,,,
1648680584,1648680584,94,0,4217.94873,4237.307617,4229.743652,4233.077148,4274.615234,4254.487305,4254.102539,4248.974121,4240.641113,4251.410156,4230.256348,4200.384766,4200.769043,4234.743652,3589,3,73,,,,0,4,4,4,4,4,4,4,4,4,4,4,4,4,4,100,,,,,,,,,,,,,,,,,,,,,,,,,,,,
1648680584,1648680584,95,0,4206.153809,4228.974121,4220.897461,4229.871582,4256.410156,4245.897461,4248.333496,4246.153809,4233.205078,4251.922852,4224.871582,4194.102539,4201.538574,4224.358887,3583,3,73,,,,0,4,4,4,4,4,4,4,4,4,4,4,4,4,4,100,,,,,,,,,,,,,,,,,,,,,,,,,,,,
1648680584,1648680584,96,0,4187.307617,4208.205078,4200.384766,4212.307617,4247.307617,4230.769043,4237.563965,4229.358887,4214.615234,4228.461426,4169.358887,4162.05127,4240.256348,4193.205078,3590,3,73,,,,0,4,4,4,4,4,4,4,4,4,4,4,4,4,4,100,,,,,,,,,,,,,,,,,24,0,0.750982,-0.044739,-0.657104,0.047302,0.997086,-0.119631,0.124514,-24.673838,-100.190735,7.327382
1648680584,1648680584,97,0,4201.666504,4227.179688,4212.94873,4222.94873,4286.538574,4243.333496,4246.410156,4237.436035,4229.743652,4237.05127,4186.153809,4177.692383,4241.666504,4208.846191,3589,3,73,,,,0,4,4,4,4,4,4,4,4,4,4,4,4,4,4,100,,,,,,,,,,,,,,,,,,,,,,,,,,,,
1648680584,1648680584,98,0,4207.05127,4237.436035,4218.846191,4226.922852,4287.692383,4243.077148,4248.461426,4235.897461,4228.846191,4243.205078,4221.666504,4193.717773,4185.769043,4219.358887,3589,3,73,,,,0,4,4,4,4,4,4,4,4,4,4,4,4,4,4,100,,,,,,,,,,,,,,,,,,,,,,,,,,,,
1648680584,1648680584,99,0,4204.743652,4224.230957,4217.05127,4221.410156,4274.615234,4242.94873,4251.410156,4236.282227,4220.769043,4245.384766,4207.563965,4182.94873,4205.512695,4210.512695,3583,3,73,,,,0,4,4,4,4,4,4,4,4,4,4,4,4,4,4,100,,,,,,,,,,,,,,,,,,,,,,,,,,,,
1648680584,1648680584,100,0,4198.974121,4214.615234,4210.769043,4216.922852,4261.922852,4238.205078,4243.974121,4227.307617,4220.641113,4237.820313,4178.846191,4168.846191,4245.256348,4200.897461,3590,3,73,,,,0,4,4,4,4,4,4,4,4,4,4,4,4,4,4,100,,,,,,,,,,,,,,,,,25,0,0.751032,-0.044739,-0.657043,0.047363,0.987808,-0.113771,0.13135,-23.028915,-99.443047,7.626459
1648680584,1648680584,101,0,4204.743652,4224.102539,4214.102539,4224.230957,4244.871582,4231.794922,4243.717773,4214.358887,4220.512695,4228.717773,4189.743652,4178.717773,4233.589844,4213.974121,3589,3,73,,,,0,4,4,4,4,4,4,4,4,4,4,4,4,4,4,100,,,,,,,,,,,,,,,,,,,,,,,,,,,,
1648680584,1648680584,102,0,4214.743652,4227.05127,4224.102539,4227.307617,4259.102539,4234.102539,4253.974121,4222.307617,4217.94873,4229.743652,4205.512695,4190.128418,4218.077148,4225,3589,3,73,,,,0,4,4,4,4,4,4,4,4,4,4,4,4,4,4,100,,,,,,,,,,,,,,,,,,,,,,,,,,,,
1648680584,1648680584,103,0,4222.436035,4231.666504,4233.846191,4231.538574,4295.128418,4246.025879,4263.461426,4242.94873,4228.974121,4238.974121,4205.769043,4196.794922,4227.563965,4223.461426,3583,3,73,,,,0,4,4,4,4,4,4,4,4,4,4,4,4,4,4,100,,,,,,,,,,,,,,,,,,,,,,,,,,,,
1648680584,1648680584,104,0,4215.128418,4232.692383,4229.230957,4230.512695,4281.153809,4243.461426,4255.128418,4238.846191,4233.461426,4244.871582,4201.410156,4194.615234,4242.820313,4214.871582,3590,3,73,,,,0,4,4,4,4,4,4,4,4,4,4,4,4,4,4,100,,,,,,,,,,,,,,,,,26,0,0.751085,-0.044678,-0.656982,0.047424,0.994644,-0.135744,0.111818,-23.477531,-97.648582,8.374151
1648680584,1648680584,105,0,4209.358887,4232.307617,4223.974121,4225.769043,4262.05127,4238.717773,4249.487305,4231.922852,4230.256348,4255.641113,4216.282227,4192.820313,4257.307617,4218.205078,3589,3,73,,,,0,4,4,4,4,4,4,4,4,4,4,4,4,4,4,100,,,,,,,,,,,,,,,,,,,,,,,,,,,,
1648680584,1648680584,106,0,4224.615234,4238.717773,4230.641113,4228.974121,4275.256348,4244.358887,4252.94873,4244.230957,4241.410156,4263.077148,4244.487305,4204.871582,4237.436035,4237.436035,3589,3,73,,,,0,4,4,4,4,4,4,4,4,4,4,4,4,4,4,100,,,,,,,,,,,,,,,,,,,,,,,,,,,,
1648680584,1648680584,107,0,4230.128418,4236.538574,4229.230957,4227.563965,4267.436035,4239.230957,4246.410156,4238.846191,4244.230957,4244.615234,4234.615234,4205.384766,4211.794922,4240.384766,3583,3,73,,,,0,4,4,4,4,4,4,4,4,4,4,4,4,4,4,100,,,,,,,,,,,,,,,,,,,,,,,,,,,,
1648680584,1648680584,108,0,4223.974121,4227.94873,4229.358887,4231.410156,4261.410156,4236.794922,4246.794922,4233.205078,4235.384766,4241.282227,4207.692383,4198.333496,4261.666504,4231.410156,3590,3,73,,,,0,4,4,4,4,4,4,4,4,4,4,4,4,4,4,100,,,,,,,,,,,,,,,,,27,0,0.751142,-0.044556,-0.656921,0.047485,0.977066,-0.117189,0.140627,-23.327993,-97.798126,10.019073
1648680584,1648680584,109,0,4212.820313,4221.794922,4220.512695,4226.794922,4254.871582,4227.307617,4238.717773,4219.230957,4210.384766,4237.94873,4201.025879,4183.333496,4261.025879,4213.205078,3589,3,73,,,,0,4,4,4,4,4,4,4,4,4,4,4,4,4,4,100,,,,,,,,,,,,,,,,,,,,,,,,,,,,
1648680584,1648680584,110,0,4225.128418,4235.384766,4225.128418,4231.153809,4249.743652,4229.358887,4235.256348,4210.897461,4206.538574,4233.589844,4223.461426,4191.282227,4210.641113,4221.538574,3589,3,73,,,,0,4,4,4,4,4,4,4,4,4,4,4,4,4,4,100,,,,,,,,,,,,,,,,,,,,,,,,,,,,
1648680584,1648680584,111,0,4226.025879,4231.538574,4226.666504,4228.717773,4249.615234,4233.846191,4237.179688,4210.512695,4215.512695,4232.05127,4217.307617,4197.94873,4230.256348,4227.05127,3583,3,73,,,,0,4,4,4,4,4,4,4,4,4,4,4,4,4,4,100,,,,,,,,,,,,,,,,,,,,,,,,,,,,
1648680584,1648680584,112,0,4215.641113,4222.179688,4222.692383,4226.922852,4256.794922,4236.922852,4246.666504,4223.461426,4228.077148,4248.205078,4202.307617,4194.743652,4280.128418,4221.410156,3590,3,73,,,,0,4,4,4,4,4,4,4,4,4,4,4,4,4,4,100,,,,,,,,,,,,,,,,,28,0,0.751282,-0.04425,-0.656799,0.047241,0.990738,-0.109865,0.135256,-25.122454,-97.199966,7.925536
1648680584,1648680584,113,0,4208.205078,4226.153809,4215.512695,4220.128418,4246.410156,4224.230957,4239.230957,4218.461426,4219.743652,4240.384766,4201.538574,4185,4251.282227,4213.846191,3589,3,73,,,,0,4,4,4,4,4,4,4,4,4,4,4,4,4,4,100,,,,,,,,,,,,,,,,,,,,,,,,,,,,
1648680584,1648680584,114,0,4222.820313,4236.538574,4227.179688,4225.256348,4246.538574,4225.512695,4238.205078,4216.282227,4216.282227,4230.256348,4224.102539,4196.538574,4217.307617,4227.820313,3589,3,73,,,,0,4,4,4,4,4,4,4,4,4,4,4,4,4,4,100,,,,,,,,,,,,,,,,,,,,,,,,,,,,
1648680584,1648680584,115,0,4217.179688,4224.871582,4221.282227,4218.461426,4243.846191,4228.333496,4237.692383,4214.358887,4211.282227,4230.769043,4226.666504,4193.717773,4221.922852,4225.256348,3583,3,73,,,,0,4,4,4,4,4,4,4,4,4,4,4,4,4,4,100,,,,,,,,,,,,,,,,,,,,,,,,,,,,
1648680584,1648680584,116,0,4208.205078,4234.230957,4216.025879,4220.641113,4243.974121,4235.641113,4239.871582,4225.641113,4218.461426,4239.102539,4209.615234,4181.282227,4252.820313,4209.102539,3590,3,73,,,,0,4,4,4,4,4,4,4,4,4,4,4,4,4,4,100,,,,,,,,,,,,,,,,,29,0,0.751375,-0.044556,-0.656677,0.04718,0.987808,-0.134768,0.141604,-24.673838,-99.443047,8.374151
1648680584,1648680584,117,0,4209.871582,4236.666504,4216.794922,4222.692383,4235.769043,4228.205078,4231.922852,4228.077148,4220.897461,4231.282227,4192.563965,4172.94873,4249.102539,4199.615234,3589,3,73,,,,0,4,4,4,4,4,4,4,4,4,4,4,4,4,4,100,,,,,,,,,,,,,,,,,,,,,,,,,,,,
1648680584,1648680584,118,0,4214.102539,4221.025879,4215.256348,4209.871582,4230.256348,4222.692383,4229.487305,4220.769043,4215.256348,4229.487305,4203.333496,4176.794922,4212.307617,4207.436035,3589,3,73,,,,0,4,4,4,4,4,4,4,4,4,4,4,4,4,4,100,,,,,,,,,,,,,,,,,,,,,,,,,,,,
1648680584,1648680584,119,0,4209.102539,4226.410156,4214.102539,4204.487305,4235.512695,4232.307617,4236.666504,4222.94873,4217.05127,4238.974121,4217.563965,4183.205078,4210.128418,4212.05127,3583,3,73,,,,0,4,4,4,4,4,4,4,4,4,4,4,4,4,4,100,,,,,,,,,,,,,,,,,,,,,,,,,,,,
1648680584,1648680584,120,0,4207.820313,4242.436035,4219.358887,4219.358887,4245.512695,4242.436035,4244.615234,4229.615234,4225.769043,4238.333496,4209.358887,4186.025879,4250,4211.922852,3590,3,73,,,,0,4,4,4,4,4,4,4,4,4,4,4,4,4,4,100,,,,,,,,,,,,,,,,,30,0,0.75143,-0.045349,-0.656555,0.047241,1.008316,-0.124514,0.132326,-24.673838,-97.648582,9.121843
1648680584,1648680584,121,0,4208.077148,4223.461426,4214.743652,4219.102539,4241.025879,4232.692383,4236.410156,4221.410156,4221.282227,4230.769043,4199.487305,4180.384766,4248.846191,4213.461426,3589,3,73,,,,0,4,4,4,4,4,4,4,4,4,4,4,4,4,4,100,,,,,,,,,,,,,,,,,,,,,,,,,,,,
1648680584,1648680584,122,0,4202.307617,4213.717773,4203.846191,4206.666504,4232.179688,4218.589844,4223.974121,4207.820313,4206.666504,4223.077148,4207.563965,4173.205078,4202.179688,4206.153809,3589,3,73,,,,0,4,4,4,4,4,4,4,4,4,4,4,4,4,4,100,,,,,,,,,,,,,,,,,,,,,,,,,,,,
1648680584,1648680584,123,0,4213.974121,4248.717773,4217.94873,4227.179688,4246.153809,4232.436035,4234.102539,4222.563965,4218.333496,4235.384766,4220.897461,4186.282227,4203.974121,4207.94873,3583,3,73,,,,0,4,4,4,4,4,4,4,4,4,4,4,4,4,4,100,,,,,,,,,,,,,,,,,,,,,,,,,,,,
1648680584,1648680584,124,0,4219.358887,4249.358887,4220.897461,4232.436035,4243.205078,4235.128418,4235.512695,4223.974121,4222.436035,4233.589844,4205,4184.871582,4234.871582,4213.717773,3590,3,73,,,,0,4,4,4,4,4,4,4,4,4,4,4,4,4,4,100,,,,,,,,,,,,,,,,,31,0,0.751408,-0.046021,-0.656555,0.046936,0.989761,-0.123537,0.146975,-24.225224,-99.742119,9.42092
1648680584,1648680584,125,0,4217.692383,4222.563965,4218.077148,4219.615234,4238.974121,4234.358887,4233.077148,4223.205078,4223.717773,4229.615234,4200.256348,4182.179688,4253.461426,4223.974121,3589,3,73,,,,0,4,4,4,4,4,4,4,4,4,4,4,4,4,4,100,,,,,,,,,,,,,,,,,,,,,,,,,,,,
1648680584,1648680584,126,0,4212.820313,4226.282227,4218.974121,4223.077148,4247.692383,4236.666504,4235.512695,4229.358887,4225.512695,4238.077148,4208.974121,4182.820313,4253.333496,4215.769043,3589,3,73,,,,0,4,4,4,4,4,4,4,4,4,4,4,4,4,4,100,,,,,,,,,,,,,,,,,,,,,,,,,,,,
1648680584,1648680584,127,0,4220.769043,4248.077148,4228.589844,4243.077148,4260.128418,4241.410156,4245.256348,4239.743652,4232.307617,4250.512695,4219.871582,4190.641113,4254.358887,4212.563965,55,3,73,,,,0,4,4,4,4,4,4,4,4,4,4,4,4,4,4,100,,,,,,,,,,,,,,,,,,,,,,,,,,,,
1648680584,1648680584,0,0,4218.846191,4234.871582,4223.077148,4231.282227,4248.333496,4231.410156,4234.358887,4232.179688,4226.153809,4233.205078,4213.333496,4185.384766,4231.538574,4210,3602,3,73,,,,0,4,4,4,4,4,4,4,4,4,4,4,4,4,4,100,,,,,,,,,,,,,,,,,0,0,0.751355,-0.046204,-0.656616,0.046753,0.996109,-0.125002,0.132326,-24.673838,-99.143967,9.42092
1648680584,1648680584,1,0,4227.563965,4234.230957,4227.692383,4228.974121,4249.102539,4240.769043,4237.179688,4235.769043,4230,4235.128418,4220.641113,4191.282227,4223.974121,4222.436035,3588,3,73,,,,0,4,4,4,4,4,4,4,4,4,4,4,4,4,4,100,,,,,,,,,,,,,,,,,,,,,,,,,,,,
1648680584,1648680584,2,0,4232.05127,4244.230957,4230.641113,4236.410156,4253.717773,4247.179688,4243.717773,4238.077148,4230.256348,4246.025879,4217.05127,4192.307617,4243.974121,4226.794922,3594,3,73,,,,0,4,4,4,4,4,4,4,4,4,4,4,4,4,4,100,,,,,,,,,,,,,,,,,,,,,,,,,,,,
1648680584,1648680584,3,0,4237.820313,4247.436035,4237.692383,4246.538574,4267.179688,4257.94873,4253.717773,4246.666504,4245.641113,4254.102539,4222.05127,4202.563965,4266.025879,4232.179688,3053,3,73,,,,0,4,4,4,4,4,4,4,4,4,4,4,4,4,4,100,,,,,,,,,,,,,,,,,,,,,,,,,,,,
1648680584,1648680584,4,0,4236.153809,4239.102539,4237.05127,4244.871582,4269.230957,4260.384766,4251.153809,4248.077148,4251.153809,4257.692383,4233.205078,4207.436035,4248.077148,4228.205078,3640,3,73,,,,0,4,4,4,4,4,4,4,4,4,4,4,4,4,4,100,,,,,,,,,,,,,,,,,1,0,0.751409,-0.046387,-0.656555,0.04657,0.994156,-0.132326,0.138186,-23.327993,-99.29351,7.476921
1648680584,1648680584,5,0,4237.94873,4238.589844,4236.025879,4242.05127,4261.025879,4247.307617,4242.307617,4238.077148,4233.461426,4254.615234,4238.717773,4201.794922,4221.794922,4227.307617,3607,3,73,,,,0,4,4,4,4,4,4,4,4,4,4,4,4,4,4,100,,,,,,,,,,,,,,,,,,,,,,,,,,,,
1648680584,1648680584,6,0,4235.641113,4237.179688,4234.230957,4236.025879,4255.769043,4234.230957,4233.333496,4228.077148,4223.846191,4240,4230.641113,4200.641113,4240,4232.05127,3392,3,73,,,,0,4,4,4,4,4,4,4,4,4,4,4,4,4,4,100,,,,,,,,,,,,,,,,,,,,,,,,,,,,
1648680584,1648680584,7,0,4237.307617,4241.794922,4237.94873,4237.307617,4263.589844,4243.717773,4237.820313,4237.692383,4235.384766,4243.205078,4229.615234,4210.384766,4283.589844,4234.358887,3595,3,73,,,,0,4,4,4,4,4,4,4,4,4,4,4,4,4,4,100,,,,,,,,,,,,,,,,,,,,,,,,,,,,
1648680584,1648680584,8,0,4242.820313,4247.692383,4242.692383,4244.743652,4266.794922,4250.897461,4244.743652,4248.077148,4238.205078,4252.563965,4236.922852,4211.025879,4279.487305,4232.307617,3574,3,73,,,,0,4,4,4,4,4,4,4,4,4,4,4,4,4,4,100,,,,,,,,,,,,,,,,,2,0,0.751668,-0.046509,-0.65625,0.04657,0.993667,-0.12549,0.150393,-23.926146,-97.947662,6.57969
1648680584,1648680584,9,0,4240.512695,4249.358887,4240.769043,4245.897461,4263.333496,4240.641113,4242.563965,4241.153809,4230.128418,4238.077148,4229.102539,4199.102539,4245.512695,4230.384766,3603,3,73,,,,0,4,4,4,4,4,4,4,4,4,4,4,4,4,4,100,,,,,,,,,,,,,,,,,,,,,,,,,,,,
1648680584,1648680584,10,0,4238.077148,4242.436035,4240.384766,4245.128418,4261.538574,4237.05127,4238.461426,4234.487305,4233.205078,4230.256348,4225,4194.743652,4231.922852,4235.384766,3629,3,73,,,,0,4,4,4,4,4,4,4,4,4,4,4,4,4,4,100,,,,,,,,,,,,,,,,,,,,,,,,,,,,
1648680584,1648680584,11,0,4232.94873,4229.615234,4234.615234,4236.538574,4256.153809,4241.282227,4234.871582,4232.307617,4233.205078,4238.205078,4227.436035,4192.307617,4235.897461,4234.230957,3634,3,73,,,,0,4,4,4,4,4,4,4,4,4,4,4,4,4,4,100,,,,,,,,,,,,,,,,,,,,,,,,,,,,
1648680584,1648680584,12,0,4234.102539,4236.922852,4239.615234,4240.128418,4267.820313,4252.436035,4245.512695,4246.666504,4242.563965,4253.333496,4229.615234,4200,4278.205078,4234.230957,3641,3,73,,,,0,4,4,4,4,4,4,4,4,4,4,4,4,4,4,100,,,,,,,,,,,,,,,,,3,0,0.751976,-0.046509,-0.655884,0.046753,0.999039,-0.127932,0.146487,-23.926146,-98.396278,9.869535
1648680584,1648680584,13,0,4228.589844,4242.563965,4235,4242.436035,4256.282227,4237.692383,4239.358887,4239.358887,4233.717773,4243.589844,4218.589844,4191.538574,4261.922852,4223.077148,3645,3,73,,,,0,4,4,4,4,4,4,4,4,4,4,4,4,4,4,100,,,,,,,,,,,,,,,,,,,,,,,,,,,,
1648680584,1648680584,14,0,4240.512695,4241.922852,4238.846191,4247.436035,4244.871582,4229.615234,4230.512695,4231.153809,4231.025879,4240.384766,4231.538574,4194.487305,4208.846191,4235.512695,3629,3,73,,,,0,4,4,4,4,4,4,4,4,4,4,4,4,4,4,100,,,,,,,,,,,,,,,,,,,,,,,,,,,,
1648680584,1648680584,15,0,4243.077148,4229.487305,4239.487305,4238.077148,4253.974121,4236.282227,4229.871582,4231.794922,4238.974121,4244.487305,4237.94873,4202.05127,4239.743652,4247.307617,3634,3,73,,,,0,4,4,4,4,4,4,4,4,4,4,4,4,4,4,100,,,,,,,,,,,,,,,,,,,,,,,,,,,,
1648680584,1648680584,16,0,4235.512695,4231.282227,4241.538574,4234.871582,4268.589844,4244.871582,4238.333496,4235.897461,4244.102539,4253.205078,4229.102539,4200.256348,4310.641113,4242.05127,0,3,73,,,,0,4,4,4,4,4,4,4,4,4,4,4,4,4,4,100,,,,,,,,,,,,,,,,,4,0,0.752173,-0.046814,-0.65564,0.046692,0.999039,-0.140627,0.136233,-24.225224,-99.143967,7.327382
1648680584,1648680584,17,0,4225.769043,4236.794922,4231.922852,4232.05127,4251.538574,4228.461426,4223.846191,4216.410156,4227.436035,4243.846191,4218.846191,4181.922852,4267.05127,4226.794922,0,3,73,,,,0,4,4,4,4,4,4,4,4,4,4,4,4,4,4,100,,,,,,,,,,,,,,,,,,,,,,,,,,,,
1648680584,1648680584,18,0,4237.820313,4243.461426,4236.410156,4240.384766,4250.256348,4227.436035,4222.179688,4215.128418,4229.102539,4241.922852,4234.743652,4191.153809,4212.307617,4236.410156,0,3,73,,,,0,4,4,4,4,4,4,4,4,4,4,4,4,4,4,100,,,,,,,,,,,,,,,,,,,,,,,,,,,,
1648680584,1648680584,19,0,4237.94873,4234.487305,4236.922852,4240.897461,4255.128418,4231.538574,4228.974121,4219.487305,4228.717773,4235.641113,4228.333496,4195.897461,4245.256348,4236.666504,0,3,73,,,,0,4,4,4,4,4,4,4,4,4,4,4,4,4,4,100,,,,,,,,,,,,,,,,,,,,,,,,,,,,
1648680584,1648680584,20,0,4232.307617,4234.871582,4235.512695,4241.922852,4255.384766,4235.897461,4235.641113,4217.563965,4223.846191,4236.666504,4215.641113,4190.769043,4286.922852,4234.615234,0,3,73,,,,0,4,4,4,4,4,4,4,4,4,4,4,4,4,4,100,,,,,,,,,,,,,,,,,5,0,0.752185,-0.047485,-0.655579,0.046692,0.994156,-0.135744,0.141115,-24.225224,-99.143967,8.374151
1648680584,1648680584,21,0,4231.025879,4233.589844,4235.897461,4235,4248.846191,4232.563965,4232.307617,4215.897461,4225.641113,4242.307617,4221.538574,4187.692383,4253.333496,4236.538574,0,3,73,,,,0,4,4,4,4,4,4,4,4,4,4,4,4,4,4,100,,,,,,,,,,,,,,,,,,,,,,,,,,,,
1648680584,1648680584,22,0,4238.589844,4230.641113,4241.153809,4231.410156,4247.820313,4235.256348,4235.384766,4224.615234,4236.282227,4242.563965,4231.922852,4193.461426,4224.871582,4240,0,3,73,,,,0,4,4,4,4,4,4,4,4,4,4,4,4,4,4,100,,,,,,,,,,,,,,,,,,,,,,,,,,,,
1648680584,1648680584,23,0,4239.230957,4237.307617,4242.94873,4239.230957,4248.974121,4240.256348,4240.128418,4235.128418,4248.205078,4246.922852,4229.615234,4197.692383,4254.487305,4236.282227,0,3,73,,,,0,4,4,4,4,4,4,4,4,4,4,4,4,4,4,100,,,,,,,,,,,,,,,,,,,,,,,,,,,,
1648680584,1648680584,24,0,4233.846191,4242.692383,4241.282227,4242.820313,4246.538574,4234.871582,4236.282227,4235.769043,4252.436035,4259.230957,4227.563965,4195.128418,4273.333496,4230.512695,0,3,73,,,,0,4,4,4,4,4,4,4,4,4,4,4,4,4,4,100,,,,,,,,,,,,,,,,,6,0,0.752097,-0.048035,-0.65564,0.046692,0.994156,-0.130373,0.141115,-25.271992,-99.592583,9.271381
1648680584,1648680584,25,0,4234.230957,4232.820313,4237.563965,4236.025879,4240,4225.384766,4230.769043,4225.512695,4245.512695,4257.820313,4231.922852,4193.717773,4252.307617,4235.384766,0,3,73,,,,0,4,4,4,4,4,4,4,4,4,4,4,4,4,4,100,,,,,,,,,,,,,,,,,,,,,,,,,,,,
1648680584,1648680584,26,0,4225.897461,4223.846191,4224.487305,4226.410156,4238.205078,4219.487305,4228.333496,4207.820313,4230,4235.769043,4222.94873,4185,4233.846191,4231.922852,0,3,73,,,,0,4,4,4,4,4,4,4,4,4,4,4,4,4,4,100,,,,,,,,,,,,,,,,,,,,,,,,,,,,
1648680584,1648680584,27,0,4221.282227,4241.025879,4225,4236.410156,4255,4229.230957,4239.615234,4211.282227,4229.871582,4235.897461,4219.487305,4183.974121,4241.538574,4223.846191,0,3,73,,,,0,4,4,4,4,4,4,4,4,4,4,4,4,4,4,100,,,,,,,,,,,,,,,,,,,,,,,,,,,,
1648680584,1648680584,28,0,4219.102539,4250.256348,4224.230957,4237.820313,4254.358887,4228.846191,4242.692383,4206.410156,4226.666504,4237.307617,4215.256348,4174.230957,4239.358887,4212.179688,0,3,73,,,,0,4,4,4,4,4,4,4,4,4,4,4,4,4,4,100,,,,,,,,,,,,,,,,,7,0,0.752096,-0.048157,-0.65564,0.04657,0.98732,-0.137209,0.132815,-24.075686,-99.592583,7.476921
1648680584,1648680584,29,0,4233.077148,4242.307617,4231.025879,4239.487305,4251.922852,4230.641113,4243.846191,4203.974121,4233.589844,4236.410156,4225.641113,4180.384766,4239.871582,4228.205078,0,3,73,,,,0,4,4,4,4,4,4,4,4,4,4,4,4,4,4,100,0.976563,66.666664,4,4,4,4,3,4,4,4,4,4,4,4,1,4,,,,,,,,,,,,
1648680584,1648680584,30,0,4238.333496,4234.743652,4236.282227,4240.384766,4255.769043,4231.410156,4237.692383,4207.563965,4237.05127,4237.307617,4234.743652,4193.974121,4235.769043,4241.922852,0,3,73,,,,0,4,4,4,4,4,4,4,4,4,4,4,4,4,4,100,,,,,,,,,,,,,,,,,,,,,,,,,,,,
1648680584,1648680584,31,0,4238.589844,4251.538574,4241.025879,4248.077148,4261.922852,4237.563965,4236.282227,4212.436035,4237.94873,4246.666504,4235.256348,4200.769043,4248.589844,4240.128418,0,3,73,,,,0,4,4,4,4,4,4,4,4,4,4,4,4,4,4,100,,,,,,,,,,,,,,,,,,,,,,,,,,,,
1648680584,1648680584,32,0,4228.077148,4251.666504,4233.077148,4242.307617,4248.205078,4231.538574,4227.05127,4197.692383,4225.769043,4233.974121,4221.282227,4185.512695,4250.128418,4227.05127,0,3,73,,,,0,4,4,4,4,4,4,4,4,4,4,4,4,4,4,100,,,,,,,,,,,,,,,,,8,0,0.752051,-0.048035,-0.655701,0.04657,0.979995,-0.123537,0.124514,-21.683069,-100.639351,8.523689
1648680584,1648680584,33,0,4237.692383,4241.922852,4243.461426,4247.820313,4249.358887,4232.436035,4231.410156,4199.743652,4232.563965,4231.153809,4229.871582,4187.94873,4233.589844,4239.615234,0,3,73,,,,0,4,4,4,4,4,4,4,4,4,4,4,4,4,4,100,,,,,,,,,,,,,,,,,,,,,,,,,,,,
1648680584,1648680584,34,0,4239.615234,4231.538574,4244.230957,4243.974121,4249.871582,4229.358887,4235.256348,4203.333496,4232.563965,4229.487305,4228.974121,4192.820313,4227.179688,4243.589844,0,3,73,,,,0,4,4,4,4,4,4,4,4,4,4,4,4,4,4,100,,,,,,,,,,,,,,,,,,,,,,,,,,,,
1648680584,1648680584,35,0,4235.897461,4241.025879,4241.410156,4240.769043,4262.94873,4238.717773,4245.641113,4208.333496,4230.641113,4235.897461,4219.743652,4195.384766,4268.974121,4238.461426,0,3,73,,,,0,4,4,4,4,4,4,4,4,4,4,4,4,4,4,100,,,,,,,,,,,,,,,,,,,,,,,,,,,,
1648680584,1648680584,36,0,4228.717773,4239.615234,4236.282227,4236.666504,4255.128418,4240.897461,4246.794922,4207.05127,4232.436035,4241.282227,4219.487305,4188.974121,4263.589844,4232.820313,0,3,73,,,,0,4,4,4,4,4,4,4,4,4,4,4,4,4,4,100,,,,,,,,,,,,,,,,,9,0,0.752044,-0.047424,-0.655762,0.046448,0.99025,-0.132326,0.133303,-22.879377,-99.29351,9.271381
1648680584,1648680584,37,0,4227.179688,4233.077148,4236.666504,4236.282227,4232.05127,4237.307617,4244.743652,4202.563965,4233.717773,4238.846191,4236.153809,4187.05127,4206.794922,4232.94873,0,3,73,,,,0,4,4,4,4,4,4,4,4,4,4,4,4,4,4,100,,,,,,,,,,,,,,,,,,,,,,,,,,,,
1648680584,1648680584,38,0,4234.743652,4234.615234,4245.769043,4245.256348,4247.94873,4241.666504,4247.563965,4205.384766,4233.077148,4237.94873,4236.025879,4194.615234,4223.205078,4237.692383,0,3,73,,,,0,4,4,4,4,4,4,4,4,4,4,4,4,4,4,100,,,,,,,,,,,,,,,,,,,,,,,,,,,,
1648680584,1648680584,39,0,4253.974121,4250.256348,4262.179688,4261.666504,4301.410156,4259.230957,4263.846191,4224.230957,4250,4254.230957,4233.717773,4213.205078,4288.846191,4254.102539,0,3,73,,,,0,4,4,4,4,4,4,4,4,4,4,4,4,4,4,100,,,,,,,,,,,,,,,,,,,,,,,,,,,,
1648680584,1648680584,40,0,4257.05127,4255.384766,4261.666504,4264.102539,4294.615234,4259.230957,4265.128418,4226.666504,4259.102539,4260.256348,4247.307617,4216.794922,4267.563965,4256.922852,0,3,73,,,,0,4,4,4,4,4,4,4,4,4,4,4,4,4,4,100,,,,,,,,,,,,,,,,,10,0,0.752044,-0.046753,-0.655823,0.046265,0.985367,-0.136721,0.139651,-24.075686,-98.545815,8.972305
1648680584,1648680584,41,0,4236.538574,4242.436035,4244.230957,4250,4243.205078,4240.769043,4248.205078,4202.436035,4235,4235.769043,4237.307617,4198.589844,4221.538574,4238.205078,0,3,73,,,,0,4,4,4,4,4,4,4,4,4,4,4,4,4,4,100,,,,,,,,,,,,,,,,,,,,,,,,,,,,
1648680584,1648680584,42,0,4232.94873,4240.512695,4245.769043,4247.692383,4258.205078,4243.589844,4248.974121,4201.666504,4229.230957,4233.077148,4222.179688,4196.282227,4260.128418,4238.461426,0,3,73,,,,0,4,4,4,4,4,4,4,4,4,4,4,4,4,4,100,,,,,,,,,,,,,,,,,,,,,,,,,,,,
1648680584,1648680584,43,0,4240.769043,4244.487305,4250.769043,4249.615234,4289.358887,4247.436035,4254.487305,4208.589844,4237.307617,4242.436035,4231.538574,4202.307617,4273.589844,4247.307617,0,3,73,,,,0,4,4,4,4,4,4,4,4,4,4,4,4,4,4,100,,,,,,,,,,,,,,,,,,,,,,,,,,,,
1648680584,1648680584,44,0,4256.153809,4255.128418,4262.692383,4264.743652,4288.717773,4252.692383,4262.563965,4211.922852,4246.922852,4250.384766,4257.307617,4217.436035,4251.282227,4261.538574,0,3,73,,,,0,4,4,4,4,4,4,4,4,4,4,4,4,4,4,100,,,,,,,,,,,,,,,,,11,0,0.752139,-0.046448,-0.655762,0.045898,0.986831,-0.126955,0.117678,-22.879377,-97.798126,8.972305
1648680584,1648680584,45,0,4253.974121,4256.666504,4260.512695,4266.153809,4273.461426,4251.922852,4257.179688,4203.461426,4242.05127,4241.410156,4248.974121,4213.461426,4251.025879,4258.333496,0,3,73,,,,0,4,4,4,4,4,4,4,4,4,4,4,4,4,4,100,,,,,,,,,,,,,,,,,,,,,,,,,,,,
1648680584,1648680584,46,0,4254.487305,4256.666504,4259.743652,4265.897461,4290.128418,4264.871582,4260.512695,4213.461426,4247.692383,4256.410156,4248.333496,4214.102539,4266.282227,4261.666504,0,3,73,,,,0,4,4,4,4,4,4,4,4,4,4,4,4,4,4,100,,,,,,,,,,,,,,,,,,,,,,,,,,,,
1648680584,1648680584,47,0,4249.743652,4247.563965,4250.641113,4260,4281.282227,4265.384766,4261.666504,4212.179688,4243.077148,4262.05127,4243.846191,4209.615234,4267.692383,4258.205078,0,3,73,,,,0,4,4,4,4,4,4,4,4,4,4,4,4,4,4,100,,,,,,,,,,,,,,,,,,,,,,,,,,,,
1648680584,1648680584,48,0,4250.512695,4250.512695,4248.717773,4258.333496,4262.692383,4262.05127,4264.487305,4209.102539,4242.94873,4242.436035,4230.512695,4204.358887,4281.794922,4256.025879,0,3,73,,,,0,4,4,4,4,4,4,4,4,4,4,4,4,4,4,100,,,,,,,,,,,,,,,,,12,0,0.7521,-0.046509,-0.655823,0.045593,0.993667,-0.137697,0.133791,-22.879377,-100.041199,8.224613
1648680584,1648680584,49,0,4251.538574,4258.461426,4252.692383,4259.615234,4282.94873,4261.410156,4264.871582,4214.743652,4251.282227,4236.794922,4235.512695,4203.461426,4276.153809,4250.384766,0,3,73,,,,0,4,4,4,4,4,4,4,4,4,4,4,4,4,4,100,,,,,,,,,,,,,,,,,,,,,,,,,,,,
1648680584,1648680584,50,0,4264.230957,4262.179688,4264.358887,4271.153809,4311.410156,4277.820313,4286.794922,4236.538574,4270.897461,4278.077148,4266.666504,4222.05127,4272.179688,4259.743652,0,3,73,,,,0,4,4,4,4,4,4,4,4,4,4,4,4,4,4,100,,,,,,,,,,,,,,,,,,,,,,,,,,,,
1648680584,1648680584,51,0,4259.487305,4245.384766,4253.333496,4259.102539,4289.487305,4277.05127,4292.436035,4238.717773,4266.666504,4285,4256.666504,4219.615234,4284.358887,4262.563965,0,3,73,,,,0,4,4,4,4,4,4,4,4,4,4,4,4,4,4,100,,,,,,,,,,,,,,,,,,,,,,,,,,,,
1648680584,1648680584,52,0,4245.897461,4240.384766,4241.794922,4249.230957,4274.102539,4264.487305,4281.153809,4232.05127,4262.179688,4261.666504,4237.820313,4204.358887,4288.333496,4256.794922,0,3,73,,,,0,4,4,4,4,4,4,4,4,4,4,4,4,4,4,100,,,,,,,,,,,,,,,,,13,0,0.752001,-0.04657,-0.655945,0.04541,0.994644,-0.133791,0.124025,-24.075686,-98.097198,9.271381
1648680584,1648680584,53,0,4232.307617,4244.358887,4238.333496,4250.512695,4268.461426,4253.846191,4273.333496,4222.820313,4265.128418,4253.846191,4245.769043,4197.05127,4263.846191,4241.538574,0,3,73,,,,0,4,4,4,4,4,4,4,4,4,4,4,4,4,4,100,,,,,,,,,,,,,,,,,,,,,,,,,,,,
1648680584,1648680584,54,0,4237.692383,4249.487305,4240.897461,4252.436035,4260.128418,4258.846191,4279.487305,4218.717773,4257.436035,4259.615234,4254.230957,4202.820313,4263.461426,4242.05127,0,3,73,,,,0,4,4,4,4,4,4,4,4,4,4,4,4,4,4,100,,,,,,,,,,,,,,,,,,,,,,,,,,,,
1648680584,1648680584,55,0,4263.205078,4253.333496,4255.641113,4261.922852,4284.615234,4274.230957,4289.102539,4235.769043,4261.666504,4280,4259.102539,4221.922852,4297.307617,4271.922852,0,3,73,,,,0,4,4,4,4,4,4,4,4,4,4,4,4,4,4,100,,,,,,,,,,,,,,,,,,,,,,,,,,,,
1648680584,1648680584,56,0,4268.077148,4255.897461,4263.589844,4271.025879,4306.282227,4276.282227,4288.974121,4247.692383,4282.820313,4295.384766,4266.025879,4232.307617,4310.897461,4278.974121,0,3,73,,,,0,4,4,4,4,4,4,4,4,4,4,4,4,4,4,100,,,,,,,,,,,,,,,,,14,0,0.752115,-0.046509,-0.655823,0.045349,0.993667,-0.127443,0.127443,-24.823378,-97.05043,8.224613
1648680584,1648680584,57,0,4250.897461,4254.487305,4252.94873,4261.153809,4281.666504,4261.153809,4274.230957,4234.487305,4276.794922,4277.179688,4260.256348,4219.358887,4284.102539,4254.871582,0,3,73,,,,0,4,4,4,4,4,4,4,4,4,4,4,4,4,4,100,,,,,,,,,,,,,,,,,,,,,,,,,,,,
1648680584,1648680584,58,0,4244.743652,4246.922852,4242.820313,4251.922852,4259.102539,4248.974121,4258.974121,4214.102539,4242.05127,4242.820313,4241.922852,4203.333496,4259.102539,4244.615234,0,3,73,,,,0,4,4,4,4,4,4,4,4,4,4,4,4,4,4,100,,,,,,,,,,,,,,,,,,,,,,,,,,,,
1648680584,1648680584,59,0,4245.641113,4238.333496,4246.538574,4256.410156,4257.436035,4253.205078,4262.05127,4212.563965,4241.410156,4234.102539,4240.512695,4205.897461,4260.897461,4249.615234,0,3,73,,,,0,4,4,4,4,4,4,4,4,4,4,4,4,4,4,100,,,,,,,,,,,,,,,,,,,,,,,,,,,,
1648680584,1648680584,60,0,4223.589844,4224.487305,4232.307617,4234.743652,4240.128418,4237.692383,4251.666504,4199.102539,4244.615234,4226.666504,4232.307617,4195.384766,4236.025879,4232.307617,0,3,73,,,,0,4,4,4,4,4,4,4,4,4,4,4,4,4,4,100,,,,,,,,,,,,,,,,,15,0,0.752369,-0.046021,-0.655579,0.045166,0.983413,-0.113283,0.132326,-24.673838,-97.648582,7.626459
1648680584,1648680584,61,0,4229.102539,4239.871582,4234.487305,4235.769043,4255.512695,4236.410156,4253.589844,4204.102539,4248.077148,4242.692383,4242.692383,4201.410156,4242.94873,4240.256348,0,3,73,,,,0,4,4,4,4,4,4,4,4,4,4,4,4,4,4,100,,,,,,,,,,,,,,,,,,,,,,,,,,,,
1648680584,1648680584,62,0,4248.461426,4253.077148,4246.666504,4253.205078,4276.538574,4251.538574,4271.666504,4218.461426,4254.487305,4261.153809,4258.846191,4215.897461,4273.846191,4259.743652,0,3,73,,,,0,4,4,4,4,4,4,4,4,4,4,4,4,4,4,100,,,,,,,,,,,,,,,,,,,,,,,,,,,,
1648680584,1648680584,63,0,4251.666504,4242.692383,4248.846191,4255.384766,4275.128418,4256.410156,4281.282227,4219.743652,4258.461426,4260.897461,4257.436035,4217.563965,4279.487305,4264.743652,0,3,73,,,,0,4,4,4,4,4,4,4,4,4,4,4,4,4,4,100,,,,,,,,,,,,,,,,,,,,,,,,,,,,
1648680584,1648680584,64,0,4224.871582,4223.974121,4225.769043,4227.820313,4241.538574,4232.692383,4261.153809,4197.563965,4233.333496,4236.794922,4226.922852,4189.487305,4246.025879,4237.563965,3601,3,73,,,,0,4,4,4,4,4,4,4,4,4,4,4,4,4,4,100,,,,,,,,,,,,,,,,,16,0,0.752686,-0.045471,-0.655273,0.044861,0.989273,-0.124514,0.136721,-23.477531,-98.695351,6.878767
1648680585,1648680585,65,0,4220.641113,4232.692383,4222.692383,4226.410156,4225.256348,4233.589844,4257.05127,4191.282227,4221.538574,4221.794922,4223.974121,4184.102539,4227.563965,4227.436035,3587,3,73,,,,0,4,4,4,4,4,4,4,4,4,4,4,4,4,4,100,,,,,,,,,,,,,,,,,,,,,,,,,,,,
1648680585,1648680585,66,0,4225.128418,4236.922852,4226.666504,4235.769043,4241.666504,4236.666504,4259.102539,4187.563965,4225.512695,4216.538574,4236.410156,4191.410156,4231.282227,4230.641113,3582,3,73,,,,0,4,4,4,4,4,4,4,4,4,4,4,4,4,4,100,,,,,,,,,,,,,,,,,,,,,,,,,,,,
1648680585,1648680585,67,0,4229.615234,4236.410156,4232.820313,4240,4270.769043,4233.205078,4264.615234,4190.769043,4237.692383,4232.563965,4238.077148,4197.692383,4250.769043,4239.102539,3051,3,73,,,,0,4,4,4,4,4,4,4,4,4,4,4,4,4,4,100,,,,,,,,,,,,,,,,,,,,,,,,,,,,
1648680585,1648680585,68,0,4225,4229.743652,4233.077148,4234.615234,4268.461426,4233.077148,4266.153809,4196.153809,4243.589844,4250.128418,4221.794922,4193.974121,4266.666504,4235.128418,3625,3,73,,,,0,4,4,4,4,4,4,4,4,4,4,4,4,4,4,100,,,,,,,,,,,,,,,,,17,0,0.752868,-0.045288,-0.65509,0.044678,0.995621,-0.115236,0.137209,-22.879377,-97.499046,8.224613
1648680585,1648680585,69,0,4220.256348,4230.256348,4229.743652,4229.487305,4240.256348,4233.974121,4263.974121,4192.05127,4233.333496,4236.666504,4211.794922,4187.05127,4253.077148,4228.077148,3609,3,73,,,,0,4,4,4,4,4,4,4,4,4,4,4,4,4,4,100,,,,,,,,,,,,,,,,,,,,,,,,,,,,
1648680585,1648680585,70,0,4220.256348,4236.922852,4226.282227,4225.384766,4223.974121,4222.05127,4254.358887,4180,4216.410156,4201.538574,4221.922852,4184.615234,4200.897461,4227.692383,3404,3,73,,,,0,4,4,4,4,4,4,4,4,4,4,4,4,4,4,100,,,,,,,,,,,,,,,,,,,,,,,,,,,,
1648680585,1648680585,71,0,4228.461426,4237.05127,4232.436035,4225.641113,4242.179688,4220.128418,4255.897461,4184.871582,4220.384766,4208.333496,4235,4190.769043,4188.589844,4233.846191,3578,3,73,,,,0,4,4,4,4,4,4,4,4,4,4,4,4,4,4,100,,,,,,,,,,,,,,,,,,,,,,,,,,,,
1648680585,1648680585,72,0,4231.794922,4223.974121,4237.563965,4229.487305,4257.307617,4228.333496,4264.230957,4198.461426,4231.410156,4231.794922,4226.025879,4195.769043,4243.974121,4240.128418,3561,3,73,,,,0,4,4,4,4,4,4,4,4,4,4,4,4,4,4,100,,,,,,,,,,,,,,,,,18,0,0.753219,-0.045105,-0.654724,0.044312,0.993179,-0.114748,0.146487,-23.627069,-97.499046,10.019073
1648680585,1648680585,73,0,4223.717773,4224.871582,4229.743652,4229.230957,4241.153809,4228.846191,4264.230957,4193.589844,4227.179688,4220.512695,4215.641113,4192.307617,4265.128418,4236.282227,3599,3,73,,,,0,4,4,4,4,4,4,4,4,4,4,4,4,4,4,100,,,,,,,,,,,,,,,,,,,,,,,,,,,,
1648680585,1648680585,74,0,4230.769043,4245.256348,4234.102539,4236.538574,4228.846191,4228.846191,4260,4189.871582,4230.512695,4216.794922,4227.05127,4196.410156,4227.820313,4240.256348,3610,3,73,,,,0,4,4,4,4,4,4,4,4,4,4,4,4,4,4,100,,,,,,,,,,,,,,,,,,,,,,,,,,,,
1648680585,1648680585,75,0,4233.205078,4245.256348,4234.487305,4233.589844,4243.077148,4224.487305,4251.922852,4187.563965,4228.974121,4217.563965,4223.333496,4191.538574,4213.846191,4240,3626,3,73,,,,0,4,4,4,4,4,4,4,4,4,4,4,4,4,4,100,,,,,,,,,,,,,,,,,,,,,,,,,,,,
1648680585,1648680585,76,0,4239.615234,4242.179688,4242.05127,4233.461426,4271.538574,4239.871582,4267.179688,4201.410156,4233.846191,4224.358887,4233.333496,4199.871582,4237.05127,4245.256348,3635,3,73,,,,0,4,4,4,4,4,4,4,4,4,4,4,4,4,4,100,,,,,,,,,,,,,,,,,19,0,0.753377,-0.045471,-0.654541,0.043945,0.979507,-0.106935,0.143069,-24.225224,-100.190735,8.374151
1648680585,1648680585,77,0,4240.897461,4244.615234,4242.436035,4237.436035,4264.487305,4247.563965,4269.743652,4203.205078,4236.282227,4225.128418,4245.897461,4203.717773,4230.256348,4243.846191,3627,3,73,,,,0,4,4,4,4,4,4,4,4,4,4,4,4,4,4,100,,,,,,,,,,,,,,,,,,,,,,,,,,,,
1648680585,1648680585,78,0,4237.563965,4248.205078,4237.307617,4246.666504,4262.05127,4248.589844,4259.871582,4199.615234,4239.743652,4233.077148,4239.102539,4198.461426,4241.794922,4241.538574,3610,3,73,,,,0,4,4,4,4,4,4,4,4,4,4,4,4,4,4,100,,,,,,,,,,,,,,,,,,,,,,,,,,,,
1648680585,1648680585,79,0,4221.025879,4231.794922,4216.666504,4222.820313,4243.717773,4234.487305,4244.102539,4181.153809,4220.384766,4216.025879,4212.05127,4179.230957,4241.153809,4225.384766,3626,3,73,,,,0,4,4,4,4,4,4,4,4,4,4,4,4,4,4,100,,,,,,,,,,,,,,,,,,,,,,,,,,,,
1648680585,1648680585,80,0,4223.077148,4229.871582,4217.05127,4217.179688,4224.743652,4233.333496,4248.077148,4178.077148,4217.692383,4205.769043,4216.538574,4179.615234,4221.410156,4224.230957,3635,3,73,,,,0,4,4,4,4,4,4,4,4,4,4,4,4,4,4,100,,,,,,,,,,,,,,,,,20,0,0.753392,-0.046326,-0.65448,0.043701,0.994644,-0.122072,0.134768,-25.271992,-99.29351,8.224613
1648680585,1648680585,81,0,4226.025879,4233.974121,4225.512695,4234.871582,4241.922852,4236.282227,4253.589844,4188.205078,4226.025879,4205.128418,4217.563965,4183.974121,4224.230957,4228.205078,3627,3,73,,,,0,4,4,4,4,4,4,4,4,4,4,4,4,4,4,100,,,,,,,,,,,,,,,,,,,,,,,,,,,,
1648680585,1648680585,82,0,4234.358887,4241.282227,4233.974121,4245.256348,4290.256348,4253.205078,4263.333496,4208.717773,4236.410156,4219.487305,4226.538574,4197.563965,4246.794922,4241.153809,3610,3,73,,,,0,4,4,4,4,4,4,4,4,4,4,4,4,4,4,100,,,,,,,,,,,,,,,,,,,,,,,,,,,,
1648680585,1648680585,83,0,4231.153809,4239.615234,4229.230957,4233.077148,4283.589844,4254.487305,4258.333496,4206.794922,4237.692383,4229.615234,4239.487305,4195.769043,4213.461426,4236.794922,3626,3,73,,,,0,4,4,4,4,4,4,4,4,4,4,4,4,4,4,100,,,,,,,,,,,,,,,,,,,,,,,,,,,,
1648680585,1648680585,84,0,4222.307617,4239.358887,4226.282227,4234.871582,4247.179688,4242.692383,4251.410156,4193.077148,4238.589844,4223.077148,4228.974121,4182.179688,4201.282227,4226.282227,3635,3,73,,,,0,4,4,4,4,4,4,4,4,4,4,4,4,4,4,100,,,,,,,,,,,,,,,,,21,0,0.753342,-0.047363,-0.65448,0.043457,0.987808,-0.120119,0.146487,-25.271992,-99.29351,9.271381
1648680585,1648680585,85,0,4216.538574,4236.538574,4224.615234,4239.487305,4238.333496,4234.358887,4249.615234,4186.025879,4233.077148,4213.205078,4210.256348,4176.538574,4242.307617,4221.538574,3627,3,73,,,,0,4,4,4,4,4,4,4,4,4,4,4,4,4,4,100,,,,,,,,,,,,,,,,,,,,,,,,,,,,
1648680585,1648680585,86,0,4221.282227,4236.025879,4226.538574,4233.974121,4250.512695,4240.512695,4258.205078,4190.256348,4231.153809,4214.358887,4219.615234,4185.641113,4241.538574,4225.128418,3610,3,73,,,,0,4,4,4,4,4,4,4,4,4,4,4,4,4,4,100,,,,,,,,,,,,,,,,,,,,,,,,,,,,
1648680585,1648680585,87,0,4236.282227,4238.589844,4237.05127,4237.307617,4271.794922,4258.717773,4270.769043,4207.563965,4245.641113,4228.974121,4239.358887,4200.897461,4224.615234,4238.974121,3626,3,73,,,,0,4,4,4,4,4,4,4,4,4,4,4,4,4,4,100,,,,,,,,,,,,,,,,,,,,,,,,,,,,
1648680585,1648680585,88,0,4246.666504,4245.769043,4245.641113,4248.846191,4278.077148,4261.410156,4267.692383,4213.717773,4251.025879,4235,4238.589844,4205.641113,4241.153809,4250.384766,3635,3,73,,,,0,4,4,4,4,4,4,4,4,4,4,4,4,4,4,100,,,,,,,,,,,,,,,,,22,0,0.75331,-0.048035,-0.65448,0.043274,0.992203,-0.122072,0.14258,-22.131685,-98.097198,7.476921
1648680585,1648680585,89,0,4244.230957,4253.461426,4242.307617,4255.769043,4261.025879,4254.102539,4252.307617,4199.871582,4242.692383,4227.436035,4232.563965,4199.615234,4244.102539,4248.077148,3627,3,73,,,,0,4,4,4,4,4,4,4,4,4,4,4,4,4,4,100,,,,,,,,,,,,,,,,,,,,,,,,,,,,
1648680585,1648680585,90,0,4227.820313,4244.743652,4228.589844,4244.102539,4238.205078,4247.179688,4241.794922,4179.743652,4229.230957,4219.358887,4220.384766,4184.871582,4218.461426,4228.589844,3610,3,73,,,,0,4,4,4,4,4,4,4,4,4,4,4,4,4,4,100,,,,,,,,,,,,,,,,,,,,,,,,,,,,
1648680585,1648680585,91,0,4227.820313,4238.461426,4231.922852,4241.666504,4240.769043,4251.666504,4251.025879,4193.333496,4239.358887,4220.897461,4225,4189.358887,4221.025879,4227.94873,3626,3,73,,,,0,4,4,4,4,4,4,4,4,4,4,4,4,4,4,100,,,,,,,,,,,,,,,,,,,,,,,,,,,,
1648680585,1648680585,92,0,4228.846191,4237.563965,4230.897461,4243.333496,4260,4249.743652,4254.230957,4207.05127,4241.538574,4207.692383,4230.641113,4192.436035,4230.512695,4230.384766,3635,3,73,,,,0,4,4,4,4,4,4,4,4,4,4,4,4,4,4,100,,,,,,,,,,,,,,,,,23,0,0.753185,-0.048218,-0.654602,0.043396,0.983902,-0.116701,0.145022,-24.225224,-97.947662,7.925536
1648680585,1648680585,93,0,4234.102539,4247.307617,4231.666504,4246.025879,4269.871582,4255.128418,4263.077148,4206.922852,4235.769043,4219.871582,4230.384766,4199.743652,4251.153809,4241.025879,3627,3,73,,,,0,4,4,4,4,4,4,4,4,4,4,4,4,4,4,100,0.976563,66.666664,4,4,4,4,3,4,4,4,4,4,4,4,1,4,,,,,,,,,,,,
1648680585,1648680585,94,0,4234.615234,4248.205078,4230.384766,4240.512695,4250.641113,4251.922852,4266.153809,4198.333496,4239.615234,4242.307617,4237.05127,4204.871582,4255.128418,4249.230957,3610,3,73,,,,0,4,4,4,4,4,4,4,4,4,4,4,4,4,4,100,,,,,,,,,,,,,,,,,,,,,,,,,,,,
1648680585,1648680585,95,0,4236.025879,4247.94873,4234.743652,4248.205078,4244.743652,4247.05127,4264.102539,4200.128418,4253.077148,4239.615234,4248.589844,4204.615234,4228.077148,4247.179688,3626,3,73,,,,0,4,4,4,4,4,4,4,4,4,4,4,4,4,4,100,,,,,,,,,,,,,,,,,,,,,,,,,,,,
1648680585,1648680585,96,0,4220.641113,4237.436035,4220.641113,4238.717773,4223.717773,4231.410156,4244.871582,4180.641113,4226.922852,4206.666504,4216.666504,4179.230957,4198.846191,4223.077148,3635,3,73,,,,0,4,4,4,4,4,4,4,4,4,4,4,4,4,4,100,,,,,,,,,,,,,,,,,24,0,0.753225,-0.048035,-0.654541,0.043823,0.980972,-0.130373,0.147463,-23.627069,-100.041199,10.019073
1648680585,1648680585,97,0,4232.307617,4242.436035,4230.769043,4241.922852,4229.102539,4238.846191,4256.153809,4186.794922,4232.94873,4219.230957,4224.358887,4193.717773,4243.846191,4239.487305,3627,3,73,,,,0,4,4,4,4,4,4,4,4,4,4,4,4,4,4,100,,,,,,,,,,,,,,,,,,,,,,,,,,,,
1648680585,1648680585,98,0,4244.358887,4236.538574,4242.692383,4246.410156,4253.461426,4245.256348,4272.563965,4210.128418,4261.794922,4245.641113,4258.846191,4222.307617,4289.487305,4263.589844,3610,3,73,,,,0,4,4,4,4,4,4,4,4,4,4,4,4,4,4,100,,,,,,,,,,,,,,,,,,,,,,,,,,,,
1648680585,1648680585,99,0,4235.769043,4230,4235.384766,4237.05127,4253.846191,4243.717773,4269.871582,4212.179688,4254.102539,4245.512695,4254.358887,4217.307617,4268.077148,4255.128418,3626,3,73,,,,0,4,4,4,4,4,4,4,4,4,4,4,4,4,4,100,,,,,,,,,,,,,,,,,,,,,,,,,,,,
1648680585,1648680585,100,0,4228.333496,4241.538574,4230.512695,4231.153809,4239.743652,4242.692383,4260.256348,4198.333496,4242.94873,4232.820313,4239.871582,4202.179688,4229.871582,4241.922852,3635,3,73,,,,0,4,4,4,4,4,4,4,4,4,4,4,4,4,4,100,,,,,,,,,,,,,,,,,25,0,0.753268,-0.047913,-0.65448,0.044128,0.989761,-0.116213,0.130861,-23.327993,-97.798126,9.719997
1648680585,1648680585,101,0,4237.307617,4247.436035,4239.358887,4238.589844,4239.487305,4251.922852,4262.692383,4204.487305,4252.436035,4226.538574,4252.436035,4207.692383,4232.94873,4245.128418,3627,3,73,,,,0,4,4,4,4,4,4,4,4,4,4,4,4,4,4,100,,,,,,,,,,,,,,,,,,,,,,,,,,,,
1648680585,1648680585,102,0,4235.769043,4227.179688,4236.153809,4236.794922,4231.025879,4249.487305,4259.871582,4207.94873,4241.922852,4226.538574,4250.256348,4209.743652,4249.358887,4245.641113,3610,3,73,,,,0,4,4,4,4,4,4,4,4,4,4,4,4,4,4,100,,,,,,,,,,,,,,,,,,,,,,,,,,,,
1648680585,1648680585,103,0,4236.282227,4230.512695,4235.769043,4238.205078,4238.333496,4239.615234,4255.128418,4200.641113,4235.897461,4228.077148,4242.563965,4208.846191,4260.641113,4253.077148,3626,3,73,,,,0,4,4,4,4,4,4,4,4,4,4,4,4,4,4,100,,,,,,,,,,,,,,,,,,,,,,,,,,,,
1648680585,1648680585,104,0,4253.589844,4256.922852,4254.615234,4254.743652,4264.230957,4245.897461,4263.333496,4207.94873,4255.769043,4236.794922,4260.641113,4222.307617,4269.871582,4270.641113,3635,3,73,,,,0,4,4,4,4,4,4,4,4,4,4,4,4,4,4,100,,,,,,,,,,,,,,,,,26,0,0.753255,-0.047729,-0.65448,0.044556,0.991226,-0.145022,0.155276,-24.5243,-97.798126,10.318151
1648680585,1648680585,105,0,4255,4256.538574,4256.153809,4257.563965,4264.358887,4251.666504,4269.615234,4206.794922,4256.794922,4245.128418,4263.974121,4223.589844,4258.333496,4267.820313,3627,3,73,,,,0,4,4,4,4,4,4,4,4,4,4,4,4,4,4,100,,,,,,,,,,,,,,,,,,,,,,,,,,,,
1648680585,1648680585,106,0,4246.153809,4247.692383,4246.282227,4253.205078,4256.410156,4247.94873,4268.461426,4198.589844,4251.282227,4250.256348,4257.436035,4218.077148,4243.333496,4258.205078,3610,3,73,,,,0,4,4,4,4,4,4,4,4,4,4,4,4,4,4,100,,,,,,,,,,,,,,,,,,,,,,,,,,,,
1648680585,1648680585,107,0,4227.436035,4239.102539,4230.641113,4234.871582,4232.692383,4235,4255.256348,4182.563965,4234.487305,4223.589844,4237.179688,4199.358887,4227.436035,4238.077148,3626,3,73,,,,0,4,4,4,4,4,4,4,4,4,4,4,4,4,4,100,,,,,,,,,,,,,,,,,,,,,,,,,,,,
1648680585,1648680585,108,0,4232.94873,4243.974121,4239.230957,4241.666504,4237.179688,4249.230957,4265.256348,4193.333496,4235.512695,4220.897461,4242.94873,4206.282227,4237.94873,4244.102539,3635,3,73,,,,0,4,4,4,4,4,4,4,4,4,4,4,4,4,4,100,,,,,,,,,,,,,,,,,27,0,0.753214,-0.047852,-0.65448,0.045105,0.976577,-0.136233,0.135744,-23.327993,-99.592583,8.972305
1648680585,1648680585,109,0,4244.102539,4245.897461,4250.641113,4260.641113,4266.538574,4255.641113,4274.230957,4207.436035,4244.102539,4243.077148,4261.410156,4222.563965,4249.871582,4260.512695,3627,3,73,,,,0,4,4,4,4,4,4,4,4,4,4,4,4,4,4,100,,,,,,,,,,,,,,,,,,,,,,,,,,,,
1648680585,1648680585,110,0,4256.153809,4251.025879,4261.153809,4267.307617,4278.077148,4255.641113,4281.025879,4219.487305,4253.974121,4250.128418,4270.769043,4233.461426,4260.897461,4273.333496,3610,3,73,,,,0,4,4,4,4,4,4,4,4,4,4,4,4,4,4,100,,,,,,,,,,,,,,,,,,,,,,,,,,,,
1648680585,1648680585,111,0,4261.666504,4258.333496,4265.128418,4262.05127,4269.615234,4261.666504,4287.436035,4222.563965,4261.282227,4234.102539,4263.461426,4235.641113,4270.512695,4273.589844,3626,3,73,,,,0,4,4,4,4,4,4,4,4,4,4,4,4,4,4,100,,,,,,,,,,,,,,,,,,,,,,,,,,,,
1648680585,1648680585,112,0,4271.153809,4267.307617,4273.717773,4273.589844,4274.487305,4274.230957,4292.820313,4225.384766,4274.358887,4250.512695,4271.025879,4244.487305,4286.025879,4279.615234,3635,3,73,,,,0,4,4,4,4,4,4,4,4,4,4,4,4,4,4,100,,,,,,,,,,,,,,,,,28,0,0.753063,-0.048218,-0.654602,0.045471,0.999039,-0.136233,0.131838,-23.327993,-99.592583,8.523689
1648680585,1648680585,113,0,4257.436035,4252.820313,4257.307617,4257.820313,4242.436035,4253.974121,4269.871582,4211.025879,4246.666504,4248.974121,4260.128418,4225.769043,4259.743652,4263.333496,3627,3,73,,,,0,4,4,4,4,4,4,4,4,4,4,4,4,4,4,100,,,,,,,,,,,,,,,,,,,,,,,,,,,,
1648680585,1648680585,114,0,4258.974121,4255.512695,4255.897461,4255,4241.410156,4247.692383,4270.512695,4218.846191,4241.794922,4241.282227,4257.307617,4223.974121,4234.358887,4261.794922,3610,3,73,,,,0,4,4,4,4,4,4,4,4,4,4,4,4,4,4,100,,,,,,,,,,,,,,,,,,,,,,,,,,,,
1648680585,1648680585,115,0,4268.589844,4261.153809,4269.615234,4272.563965,4280.128418,4262.307617,4286.922852,4232.563965,4272.563965,4256.153809,4273.974121,4239.871582,4247.05127,4276.153809,3626,3,73,,,,0,4,4,4,4,4,4,4,4,4,4,4,4,4,4,100,,,,,,,,,,,,,,,,,,,,,,,,,,,,
1648680585,1648680585,116,0,4264.230957,4247.179688,4268.333496,4267.563965,4276.794922,4270.641113,4288.717773,4225.384766,4277.820313,4264.230957,4277.179688,4239.871582,4283.461426,4278.461426,3635,3,73,,,,0,4,4,4,4,4,4,4,4,4,4,4,4,4,4,100,,,,,,,,,,,,,,,,,29,0,0.752881,-0.048462,-0.654785,0.045593,0.985855,-0.122072,0.142092,-22.729839,-98.396278,6.57969
1648680585,1648680585,117,0,4254.358887,4237.820313,4254.871582,4249.358887,4251.922852,4259.230957,4278.846191,4212.820313,4259.743652,4248.205078,4262.307617,4228.461426,4285.384766,4265.512695,3627,3,73,,,,0,4,4,4,4,4,4,4,4,4,4,4,4,4,4,100,,,,,,,,,,,,,,,,,,,,,,,,,,,,
1648680585,1648680585,118,0,4260.384766,4256.153809,4256.922852,4259.102539,4270.128418,4256.025879,4281.922852,4218.589844,4262.563965,4249.358887,4269.358887,4231.666504,4264.230957,4267.692383,3610,3,73,,,,0,4,4,4,4,4,4,4,4,4,4,4,4,4,4,100,,,,,,,,,,,,,,,,,,,,,,,,,,,,
1648680585,1648680585,119,0,4265.128418,4264.358887,4261.410156,4268.974121,4272.179688,4263.461426,4287.820313,4227.692383,4266.794922,4263.461426,4275.256348,4236.794922,4274.230957,4275.512695,3626,3,73,,,,0,4,4,4,4,4,4,4,4,4,4,4,4,4,4,100,,,,,,,,,,,,,,,,,,,,,,,,,,,,
1648680585,1648680585,120,0,4250.897461,4248.077148,4249.230957,4252.563965,4248.077148,4258.717773,4282.307617,4220.897461,4251.538574,4258.205078,4260.256348,4227.179688,4276.282227,4262.05127,3635,3,73,,,,0,4,4,4,4,4,4,4,4,4,4,4,4,4,4,100,,,,,,,,,,,,,,,,,30,0,0.752941,-0.048401,-0.654724,0.045532,0.991714,-0.135744,0.119631,-24.225224,-99.143967,8.374151
1648680585,1648680585,121,0,4243.589844,4241.153809,4245.384766,4245.769043,4262.179688,4257.05127,4278.974121,4219.487305,4252.563965,4251.538574,4266.410156,4224.743652,4243.461426,4254.871582,3627,3,73,,,,0,4,4,4,4,4,4,4,4,4,4,4,4,4,4,100,,,,,,,,,,,,,,,,,,,,,,,,,,,,
1648680585,1648680585,122,0,4246.538574,4248.846191,4245.512695,4252.820313,4271.025879,4253.461426,4271.282227,4214.230957,4248.589844,4231.282227,4263.333496,4218.333496,4227.94873,4253.205078,3610,3,73,,,,0,4,4,4,4,4,4,4,4,4,4,4,4,4,4,100,,,,,,,,,,,,,,,,,,,,,,,,,,,,
1648680585,1648680585,123,0,4260,4256.538574,4255.128418,4270.769043,4266.410156,4257.692383,4275.641113,4220.128418,4246.666504,4234.102539,4250,4222.05127,4272.563965,4261.922852,3626,3,73,,,,0,4,4,4,4,4,4,4,4,4,4,4,4,4,4,100,,,,,,,,,,,,,,,,,,,,,,,,,,,,
1648680585,1648680585,124,0,4250.512695,4245.384766,4250.256348,4263.205078,4262.692383,4259.615234,4276.153809,4217.307617,4248.077148,4240.897461,4245.384766,4219.102539,4283.077148,4258.717773,3635,3,73,,,,0,4,4,4,4,4,4,4,4,4,4,4,4,4,4,100,,,,,,,,,,,,,,,,,31,0,0.753006,-0.048157,-0.654663,0.045593,0.994156,-0.144533,0.132815,-24.075686,-99.592583,8.523689
1648680585,1648680585,125,0,4251.153809,4253.333496,4252.820313,4258.205078,4280.384766,4271.282227,4281.410156,4220.512695,4260.512695,4238.589844,4267.820313,4225.128418,4261.666504,4265.256348,3627,3,73,,,,0,4,4,4,4,4,4,4,4,4,4,4,4,4,4,100,,,,,,,,,,,,,,,,,,,,,,,,,,,,
1648680585,1648680585,126,0,4255.769043,4258.974121,4250.641113,4256.282227,4271.025879,4264.487305,4277.563965,4216.922852,4253.461426,4240.897461,4267.692383,4226.410156,4258.717773,4267.436035,3610,3,73,,,,0,4,4,4,4,4,4,4,4,4,4,4,4,4,4,100,,,,,,,,,,,,,,,,,,,,,,,,,,,,
1648680585,1648680585,127,0,4256.666504,4255.256348,4248.846191,4260.641113,4258.205078,4259.743652,4275,4217.307617,4248.077148,4253.846191,4252.436035,4224.487305,4270.769043,4266.410156,55,3,73,,,,0,4,4,4,4,4,4,4,4,4,4,4,4,4,4,100,,,,,,,,,,,,,,,,,,,,,,,,,,,,
1648680585,1648680585,0,0,4249.487305,4250.128418,4248.333496,4260.128418,4268.589844,4260.512695,4271.666504,4222.94873,4249.615234,4244.487305,4247.05127,4217.820313,4254.743652,4256.794922,3636,3,73,,,,0,4,4,4,4,4,4,4,4,4,4,4,4,4,4,100,,,,,,,,,,,,,,,,,0,0,0.753106,-0.047913,-0.654541,0.045959,0.993667,-0.148928,0.136721,-23.477531,-98.396278,7.626459
1648680585,1648680585,1,0,4260.128418,4256.153809,4260,4265.256348,4292.436035,4271.025879,4283.846191,4243.974121,4264.871582,4256.538574,4270.512695,4228.717773,4254.743652,4263.589844,3622,3,73,,,,0,4,4,4,4,4,4,4,4,4,4,4,4,4,4,100,,,,,,,,,,,,,,,,,,,,,,,,,,,,
1648680585,1648680585,2,0,4252.692383,4240,4249.102539,4252.436035,4275.384766,4263.205078,4280.256348,4239.871582,4261.025879,4258.974121,4264.871582,4223.461426,4258.717773,4258.077148,3631,3,73,,,,0,4,4,4,4,4,4,4,4,4,4,4,4,4,4,100,,,,,,,,,,,,,,,,,,,,,,,,,,,,
1648680585,1648680585,3,0,4239.487305,4235.897461,4237.05127,4252.05127,4256.922852,4258.461426,4273.717773,4222.436035,4253.077148,4238.461426,4241.025879,4212.436035,4249.358887,4242.307617,3087,3,73,,,,0,4,4,4,4,4,4,4,4,4,4,4,4,4,4,100,,,,,,,,,,,,,,,,,,,,,,,,,,,,
1648680585,1648680585,4,0,4241.666504,4245.512695,4241.282227,4259.487305,4264.615234,4260.641113,4275.769043,4217.05127,4253.846191,4238.717773,4242.436035,4214.487305,4250.641113,4245.384766,3675,3,73,,,,0,4,4,4,4,4,4,4,4,4,4,4,4,4,4,100,,,,,,,,,,,,,,,,,1,0,0.753167,-0.047668,-0.65448,0.046082,0.99855,-0.136233,0.134768,-24.5243,-98.844894,8.523689
1648680585,1648680585,5,0,4244.743652,4243.846191,4243.846191,4248.846191,4268.077148,4259.358887,4279.487305,4215.256348,4247.307617,4242.179688,4248.077148,4213.461426,4257.436035,4256.282227,3622,3,73,,,,0,4,4,4,4,4,4,4,4,4,4,4,4,4,4,100,,,,,,,,,,,,,,,,,,,,,,,,,,,,
1648680585,1648680585,6,0,4242.563965,4240.256348,4242.05127,4242.179688,4266.922852,4257.94873,4277.820313,4211.410156,4236.794922,4230.128418,4240.641113,4208.333496,4244.615234,4248.077148,3403,3,73,,,,0,4,4,4,4,4,4,4,4,4,4,4,4,4,4,100,,,,,,,,,,,,,,,,,,,,,,,,,,,,
1648680585,1648680585,7,0,4243.461426,4240.512695,4246.282227,4245.897461,4258.846191,4257.05127,4274.230957,4209.487305,4236.153809,4232.05127,4246.922852,4213.205078,4229.743652,4241.922852,3594,3,73,,,,0,4,4,4,4,4,4,4,4,4,4,4,4,4,4,100,,,,,,,,,,,,,,,,,,,,,,,,,,,,
1648680585,1648680585,8,0,4251.282227,4240.769043,4255.897461,4252.179688,4256.794922,4255.641113,4273.589844,4217.94873,4247.436035,4249.102539,4264.358887,4225.384766,4250.128418,4258.846191,3556,3,73,,,,0,4,4,4,4,4,4,4,4,4,4,4,4,4,4,100,,,,,,,,,,,,,,,,,2,0,0.753246,-0.047546,-0.654419,0.045776,0.983413,-0.147463,0.125978,-23.028915,-97.947662,8.374151
1648680585,1648680585,9,0,4253.589844,4251.025879,4256.922852,4261.410156,4272.436035,4254.615234,4276.282227,4226.282227,4248.589844,4249.230957,4252.94873,4224.615234,4276.666504,4261.153809,3599,3,73,,,,0,4,4,4,4,4,4,4,4,4,4,4,4,4,4,100,,,,,,,,,,,,,,,,,,,,,,,,,,,,
1648680585,1648680585,10,0,4255.384766,4257.05127,4259.615234,4268.077148,4281.922852,4263.333496,4286.282227,4234.230957,4254.871582,4250.256348,4240.897461,4225.897461,4276.410156,4255.641113,3625,3,73,,,,0,4,4,4,4,4,4,4,4,4,4,4,4,4,4,100,,,,,,,,,,,,,,,,,,,,,,,,,,,,
1648680585,1648680585,11,0,4242.94873,4237.05127,4248.974121,4245.769043,4259.871582,4254.871582,4278.717773,4218.589844,4249.743652,4240.384766,4237.05127,4216.666504,4243.846191,4251.153809,3624,3,73,,,,0,4,4,4,4,4,4,4,4,4,4,4,4,4,4,100,,,,,,,,,,,,,,,,,,,,,,,,,,,,
