Timestamp,OriginalTimestamp,EEG.Counter,EEG.Interpolated,EEG.AF3,EEG.F7,EEG.F3,EEG.FC5,EEG.T7,EEG.P7,EEG.O1,EEG.O2,EEG.P8,EEG.T8,EEG.FC6,EEG.F4,EEG.F8,EEG.AF4,EEG.RawCq,EEG.Battery,EEG.BatteryPercent,MarkerIndex,MarkerType,MarkerValueInt,EEG.MarkerHardware,CQ.AF3,CQ.F7,CQ.F3,CQ.FC5,CQ.T7,CQ.P7,CQ.O1,CQ.O2,CQ.P8,CQ.T8,CQ.FC6,CQ.F4,CQ.F8,CQ.AF4,CQ.Overall,EQ.SampleRateQuality,EQ.OVERALL,EQ.AF3,EQ.F7,EQ.F3,EQ.FC5,EQ.T7,EQ.P7,EQ.O1,EQ.O2,EQ.P8,EQ.T8,EQ.FC6,EQ.F4,EQ.F8,EQ.AF4,MOT.CounterMems,MOT.InterpolatedMems,MOT.Q0,MOT.Q1,MOT.Q2,MOT.Q3,MOT.AccX,MOT.AccY,MOT.AccZ,MOT.MagX,MOT.MagY,MOT.MagZ
1648680180,1648680180,127,0,4259.615234,4267.05127,4230.384766,4288.846191,4255.256348,4216.282227,4238.846191,4263.846191,4309.615234,4271.794922,4291.410156,4191.282227,4456.025879,4231.153809,55,3,73,,,,0,4,4,4,4,4,4,4,4,4,4,4,4,4,4,100,,,,,,,,,,,,,,,,,,,,,,,,,,,,
1648680180,1648680181,0,0,4260.897461,4281.410156,4229.487305,4291.410156,4257.692383,4213.589844,4229.230957,4254.615234,4298.205078,4273.333496,4288.077148,4187.820313,4458.333496,4230.384766,3606,3,73,,,,0,4,4,4,4,4,4,4,4,4,4,4,4,4,4,100,,,,,,,,,,,,,,,,,0,0,0.576988,0.33728,-0.628113,0.398499,1.001968,-0.082521,0,-23.926146,-95.854126,3.887999
1648680180,1648680181,1,0,4251.153809,4279.743652,4229.358887,4286.282227,4250.897461,4203.974121,4223.717773,4251.282227,4296.666504,4262.05127,4282.563965,4186.794922,4464.358887,4230.256348,3594,3,73,,,,0,4,4,4,4,4,4,4,4,4,4,4,4,4,4,100,,,,,,,,,,,,,,,,,,,,,,,,,,,,
1648680181,1648680181,2,0,4237.05127,4261.025879,4218.333496,4271.153809,4239.615234,4194.743652,4218.077148,4243.846191,4290.641113,4251.666504,4271.666504,4177.563965,4451.666504,4223.717773,3606,3,73,,,,0,4,4,4,4,4,4,4,4,4,4,4,4,4,4,100,,,,,,,,,,,,,,,,,,,,,,,,,,,,
1648680181,1648680181,3,0,4251.410156,4271.282227,4227.563965,4284.871582,4253.333496,4209.871582,4233.333496,4252.307617,4297.692383,4267.307617,4277.692383,4181.153809,4454.743652,4234.743652,3098,3,73,,,,0,4,4,4,4,4,4,4,4,4,4,4,4,4,4,100,,,,,,,,,,,,,,,,,,,,,,,,,,,,
1648680181,1648680181,4,0,4260.256348,4287.05127,4235.769043,4297.436035,4254.871582,4212.692383,4240.128418,4254.102539,4300.384766,4266.153809,4282.692383,4182.820313,4450.256348,4234.743652,3649,3,73,,,,0,4,4,4,4,4,4,4,4,4,4,4,4,4,4,100,,,,,,,,,,,,,,,,,1,0,0.577837,0.337097,-0.627625,0.398193,1.011246,-0.081544,0.009277,-25.57107,-96.751358,1.644923
1648680181,1648680181,5,0,4262.05127,4287.179688,4237.94873,4298.846191,4258.077148,4215.256348,4240.512695,4256.410156,4307.820313,4267.179688,4295,4195.384766,4448.461426,4238.974121,3616,3,73,,,,0,4,4,4,4,4,4,4,4,4,4,4,4,4,4,100,,,,,,,,,,,,,,,,,,,,,,,,,,,,
1648680181,1648680181,6,0,4248.461426,4261.282227,4223.077148,4280.128418,4253.333496,4208.205078,4228.846191,4244.871582,4302.94873,4270.512695,4286.410156,4189.743652,4453.974121,4238.589844,3399,3,73,,,,0,4,4,4,4,4,4,4,4,4,4,4,4,4,4,100,,,,,,,,,,,,,,,,,,,,,,,,,,,,
1648680181,1648680181,7,0,4243.077148,4257.692383,4215.512695,4272.05127,4247.563965,4199.615234,4222.179688,4240.897461,4296.922852,4274.871582,4275.641113,4177.307617,4456.538574,4233.333496,3590,3,73,,,,0,4,4,4,4,4,4,4,4,4,4,4,4,4,4,100,,,,,,,,,,,,,,,,,,,,,,,,,,,,
1648680181,1648680181,8,0,4242.179688,4270.512695,4210.128418,4273.333496,4243.333496,4194.743652,4216.025879,4243.205078,4294.615234,4267.563965,4277.436035,4173.205078,4437.436035,4224.358887,3580,3,73,,,,0,4,4,4,4,4,4,4,4,4,4,4,4,4,4,100,,,,,,,,,,,,,,,,,2,0,0.578307,0.338074,-0.627014,0.397644,1.023941,-0.053712,0.001465,-24.823378,-97.05043,2.990768
1648680181,1648680181,9,0,4250.256348,4276.025879,4215.769043,4281.666504,4250.512695,4202.307617,4222.820313,4247.05127,4299.487305,4262.436035,4285.256348,4181.922852,4433.846191,4230.512695,3599,3,73,,,,0,4,4,4,4,4,4,4,4,4,4,4,4,4,4,100,,,,,,,,,,,,,,,,,,,,,,,,,,,,
1648680181,1648680181,10,0,4247.179688,4262.563965,4215,4273.717773,4243.717773,4196.922852,4222.563965,4236.153809,4293.589844,4258.461426,4273.205078,4176.153809,4433.717773,4229.615234,3610,3,73,,,,0,4,4,4,4,4,4,4,4,4,4,4,4,4,4,100,,,,,,,,,,,,,,,,,,,,,,,,,,,,
1648680181,1648680181,11,0,4241.794922,4260.769043,4206.282227,4260,4237.436035,4194.230957,4221.153809,4230.897461,4290.641113,4262.820313,4264.743652,4170.384766,4436.410156,4225.384766,3626,3,73,,,,0,4,4,4,4,4,4,4,4,4,4,4,4,4,4,100,,,,,,,,,,,,,,,,,,,,,,,,,,,,
1648680181,1648680181,12,0,4243.205078,4271.538574,4206.922852,4263.846191,4241.538574,4200.128418,4224.615234,4237.307617,4293.589844,4267.307617,4268.589844,4175.641113,4447.436035,4232.436035,3623,3,73,,,,0,4,4,4,4,4,4,4,4,4,4,4,4,4,4,100,,,,,,,,,,,,,,,,,3,0,0.578104,0.340149,-0.626465,0.397034,1.013687,-0.066896,-0.010742,-25.271992,-96.302742,2.243076
1648680181,1648680181,13,0,4241.282227,4271.666504,4211.922852,4272.307617,4238.205078,4193.333496,4220.512695,4233.205078,4285.256348,4257.563965,4265.512695,4170.769043,4439.871582,4232.94873,3628,3,73,,,,0,4,4,4,4,4,4,4,4,4,4,4,4,4,4,100,,,,,,,,,,,,,,,,,,,,,,,,,,,,
1648680181,1648680181,14,0,4242.307617,4261.666504,4211.666504,4268.205078,4238.205078,4191.025879,4217.307617,4233.974121,4283.205078,4259.615234,4269.358887,4167.820313,4425.256348,4228.589844,3610,3,73,,,,0,4,4,4,4,4,4,4,4,4,4,4,4,4,4,100,,,,,,,,,,,,,,,,,,,,,,,,,,,,
1648680181,1648680181,15,0,4246.666504,4264.871582,4211.025879,4266.410156,4246.794922,4201.666504,4219.743652,4240.128418,4291.025879,4274.230957,4279.743652,4175.384766,4425.897461,4230.769043,3626,3,73,,,,0,4,4,4,4,4,4,4,4,4,4,4,4,4,4,100,,,,,,,,,,,,,,,,,,,,,,,,,,,,
1648680181,1648680181,16,0,4259.743652,4287.820313,4227.563965,4289.487305,4261.282227,4216.282227,4233.461426,4255.641113,4307.820313,4292.05127,4293.077148,4189.230957,4450.897461,4244.743652,0,3,73,,,,0,4,4,4,4,4,4,4,4,4,4,4,4,4,4,100,,,,,,,,,,,,,,,,,4,0,0.577135,0.342957,-0.626099,0.396606,1.005875,-0.063966,-0.030274,-24.225224,-97.199966,3.887999
1648680181,1648680181,17,0,4251.282227,4285.769043,4223.077148,4285.256348,4254.358887,4211.025879,4234.230957,4253.205078,4309.358887,4283.717773,4283.333496,4178.974121,4449.358887,4237.05127,0,3,73,,,,0,4,4,4,4,4,4,4,4,4,4,4,4,4,4,100,,,,,,,,,,,,,,,,,,,,,,,,,,,,
1648680181,1648680181,18,0,4247.820313,4275,4218.077148,4274.615234,4253.461426,4212.692383,4235.769043,4248.461426,4310.512695,4281.025879,4282.692383,4177.94873,4438.974121,4237.05127,0,3,73,,,,0,4,4,4,4,4,4,4,4,4,4,4,4,4,4,100,,,,,,,,,,,,,,,,,,,,,,,,,,,,
1648680181,1648680181,19,0,4251.666504,4276.153809,4221.025879,4277.436035,4254.102539,4211.922852,4230.512695,4247.820313,4302.563965,4277.307617,4287.692383,4182.820313,4440.128418,4242.692383,0,3,73,,,,0,4,4,4,4,4,4,4,4,4,4,4,4,4,4,100,,,,,,,,,,,,,,,,,,,,,,,,,,,,
1648680181,1648680181,20,0,4262.05127,4285.641113,4230.128418,4288.846191,4261.922852,4217.94873,4237.436035,4266.794922,4310.897461,4283.077148,4296.025879,4193.974121,4450.128418,4251.025879,0,3,73,,,,0,4,4,4,4,4,4,4,4,4,4,4,4,4,4,100,,,,,,,,,,,,,,,,,5,0,0.575721,0.345947,-0.625793,0.396545,1.013199,-0.068849,-0.028809,-26.169222,-96.452278,1.345846
1648680181,1648680181,21,0,4257.436035,4275.256348,4219.358887,4277.563965,4257.307617,4213.846191,4233.846191,4261.538574,4310.512695,4281.153809,4288.333496,4188.846191,4439.615234,4241.025879,0,3,73,,,,0,4,4,4,4,4,4,4,4,4,4,4,4,4,4,100,,,,,,,,,,,,,,,,,,,,,,,,,,,,
1648680181,1648680181,22,0,4262.692383,4286.410156,4225.641113,4282.692383,4265.128418,4223.461426,4235,4257.94873,4315,4293.205078,4295.256348,4193.717773,4445.897461,4248.846191,0,3,73,,,,0,4,4,4,4,4,4,4,4,4,4,4,4,4,4,100,,,,,,,,,,,,,,,,,,,,,,,,,,,,
1648680181,1648680181,23,0,4269.743652,4300.512695,4239.615234,4296.025879,4273.205078,4229.102539,4238.846191,4273.589844,4326.410156,4305,4310.128418,4203.974121,4452.307617,4264.358887,0,3,73,,,,0,4,4,4,4,4,4,4,4,4,4,4,4,4,4,100,,,,,,,,,,,,,,,,,,,,,,,,,,,,
1648680181,1648680181,24,0,4278.717773,4295.384766,4246.922852,4302.05127,4276.025879,4229.615234,4242.179688,4282.05127,4332.692383,4302.94873,4321.153809,4213.974121,4448.717773,4273.974121,0,3,73,,,,0,4,4,4,4,4,4,4,4,4,4,4,4,4,4,100,,,,,,,,,,,,,,,,,6,0,0.574924,0.347351,-0.625671,0.396667,1.009293,-0.06836,-0.034668,-24.823378,-95.555046,1.943999
1648680181,1648680181,25,0,4276.922852,4282.820313,4243.077148,4297.179688,4274.487305,4230.897461,4235.897461,4270.256348,4325.641113,4293.589844,4310.769043,4207.692383,4450,4268.717773,0,3,73,,,,0,4,4,4,4,4,4,4,4,4,4,4,4,4,4,100,,,,,,,,,,,,,,,,,,,,,,,,,,,,
1648680181,1648680181,26,0,4279.615234,4291.410156,4248.717773,4301.922852,4286.666504,4243.077148,4241.538574,4276.282227,4332.94873,4304.358887,4302.563965,4206.282227,4460.512695,4270,0,3,73,,,,0,4,4,4,4,4,4,4,4,4,4,4,4,4,4,100,,,,,,,,,,,,,,,,,,,,,,,,,,,,
1648680181,1648680181,27,0,4285.641113,4293.333496,4255.384766,4307.436035,4293.333496,4245.897461,4248.589844,4285.128418,4341.666504,4314.743652,4311.794922,4216.922852,4450.384766,4277.94873,0,3,73,,,,0,4,4,4,4,4,4,4,4,4,4,4,4,4,4,100,,,,,,,,,,,,,,,,,,,,,,,,,,,,
1648680181,1648680181,28,0,4281.666504,4286.538574,4247.05127,4304.358887,4287.563965,4239.230957,4245.641113,4278.077148,4332.692383,4300.897461,4316.666504,4213.974121,4436.282227,4272.05127,0,3,73,,,,0,4,4,4,4,4,4,4,4,4,4,4,4,4,4,100,,,,,,,,,,,,,,,,,7,0,0.573354,0.349976,-0.62561,0.396729,1.015152,-0.074708,-0.046387,-25.42153,-95.40551,3.887999
1648680181,1648680181,29,0,4286.794922,4296.666504,4251.282227,4312.436035,4296.794922,4250.641113,4255.384766,4292.692383,4349.487305,4312.692383,4318.974121,4213.717773,4460,4275,0,3,73,,,,0,4,4,4,4,4,4,4,4,4,4,4,4,4,4,100,1,58.333332,4,4,4,4,4,4,4,3,3,3,4,4,1,4,,,,,,,,,,,,
1648680181,1648680181,30,0,4299.358887,4302.94873,4265.769043,4320.769043,4309.871582,4265.769043,4271.282227,4315,4367.307617,4329.615234,4323.461426,4226.666504,4482.307617,4286.025879,0,3,73,,,,0,4,4,4,4,4,4,4,4,4,4,4,4,4,4,100,,,,,,,,,,,,,,,,,,,,,,,,,,,,
1648680181,1648680181,31,0,4304.102539,4301.025879,4271.538574,4321.666504,4314.230957,4271.153809,4272.94873,4318.589844,4353.717773,4322.94873,4331.025879,4235,4465.897461,4289.871582,0,3,73,,,,0,4,4,4,4,4,4,4,4,4,4,4,4,4,4,100,,,,,,,,,,,,,,,,,,,,,,,,,,,,
1648680181,1648680181,32,0,4296.410156,4300.128418,4261.538574,4314.871582,4308.205078,4263.717773,4261.538574,4298.846191,4339.487305,4318.846191,4324.615234,4220.512695,4441.282227,4281.282227,0,3,73,,,,0,4,4,4,4,4,4,4,4,4,4,4,4,4,4,100,,,,,,,,,,,,,,,,,8,0,0.572239,0.352112,-0.625549,0.396545,0.99025,-0.084962,-0.041016,-25.42153,-94.657814,2.093538
1648680181,1648680181,33,0,4309.487305,4309.102539,4272.563965,4326.794922,4315.512695,4273.333496,4273.589844,4304.102539,4366.025879,4342.05127,4329.487305,4228.974121,4469.615234,4296.153809,0,3,73,,,,0,4,4,4,4,4,4,4,4,4,4,4,4,4,4,100,,,,,,,,,,,,,,,,,,,,,,,,,,,,
1648680181,1648680181,34,0,4312.563965,4306.538574,4279.487305,4334.615234,4314.487305,4275.512695,4280.384766,4313.717773,4373.077148,4341.025879,4331.922852,4240,4479.358887,4302.307617,0,3,73,,,,0,4,4,4,4,4,4,4,4,4,4,4,4,4,4,100,,,,,,,,,,,,,,,,,,,,,,,,,,,,
1648680181,1648680181,35,0,4315.128418,4309.487305,4285.128418,4342.692383,4320.256348,4279.615234,4280.897461,4320,4370.256348,4338.974121,4340.512695,4245,4460.641113,4303.333496,0,3,73,,,,0,4,4,4,4,4,4,4,4,4,4,4,4,4,4,100,,,,,,,,,,,,,,,,,,,,,,,,,,,,
1648680181,1648680181,36,0,4315.641113,4305.128418,4281.794922,4335.769043,4320,4279.358887,4275.256348,4312.94873,4369.358887,4336.666504,4336.282227,4238.077148,4456.410156,4301.153809,0,3,73,,,,0,4,4,4,4,4,4,4,4,4,4,4,4,4,4,100,,,,,,,,,,,,,,,,,9,0,0.571726,0.353394,-0.625488,0.39624,1.000015,-0.098634,-0.047364,-26.019684,-94.807358,1.943999
1648680181,1648680181,37,0,4322.820313,4311.025879,4287.05127,4338.077148,4328.974121,4286.025879,4282.179688,4320.128418,4379.487305,4338.974121,4336.666504,4246.538574,4483.974121,4312.179688,0,3,73,,,,0,4,4,4,4,4,4,4,4,4,4,4,4,4,4,100,,,,,,,,,,,,,,,,,,,,,,,,,,,,
1648680181,1648680181,38,0,4325,4319.102539,4290.384766,4345.512695,4331.666504,4286.153809,4279.487305,4328.205078,4384.615234,4339.230957,4342.563965,4252.94873,4475.512695,4316.282227,0,3,73,,,,0,4,4,4,4,4,4,4,4,4,4,4,4,4,4,100,,,,,,,,,,,,,,,,,,,,,,,,,,,,
1648680181,1648680181,39,0,4327.692383,4313.846191,4294.615234,4349.230957,4328.717773,4285.769043,4275.512695,4329.358887,4384.102539,4346.410156,4351.922852,4253.461426,4449.615234,4317.820313,0,3,73,,,,0,4,4,4,4,4,4,4,4,4,4,4,4,4,4,100,,,,,,,,,,,,,,,,,,,,,,,,,,,,
1648680181,1648680181,40,0,4319.102539,4293.846191,4288.205078,4338.461426,4322.563965,4281.153809,4272.05127,4317.94873,4373.333496,4345.897461,4340.256348,4244.487305,4454.743652,4310.512695,0,3,73,,,,0,4,4,4,4,4,4,4,4,4,4,4,4,4,4,100,,,,,,,,,,,,,,,,,10,0,0.571809,0.353943,-0.625488,0.39563,0.991226,-0.075685,-0.043458,-25.122454,-96.452278,2.093538
1648680181,1648680181,41,0,4322.05127,4300.512695,4290.128418,4339.615234,4330,4288.461426,4278.846191,4318.974121,4381.794922,4345.641113,4332.436035,4245.897461,4473.333496,4309.230957,0,3,73,,,,0,4,4,4,4,4,4,4,4,4,4,4,4,4,4,100,,,,,,,,,,,,,,,,,,,,,,,,,,,,
1648680181,1648680181,42,0,4325.897461,4313.205078,4292.563965,4342.94873,4330,4288.717773,4278.333496,4328.846191,4391.025879,4342.05127,4339.358887,4250.128418,4458.717773,4311.410156,0,3,73,,,,0,4,4,4,4,4,4,4,4,4,4,4,4,4,4,100,,,,,,,,,,,,,,,,,,,,,,,,,,,,
1648680181,1648680181,43,0,4313.205078,4305,4283.077148,4333.333496,4316.538574,4275.641113,4266.922852,4323.333496,4376.282227,4334.102539,4338.205078,4241.282227,4439.871582,4306.410156,0,3,73,,,,0,4,4,4,4,4,4,4,4,4,4,4,4,4,4,100,,,,,,,,,,,,,,,,,,,,,,,,,,,,
1648680181,1648680181,44,0,4306.922852,4291.025879,4275.256348,4322.692383,4309.615234,4273.717773,4261.282227,4314.615234,4367.692383,4336.666504,4326.410156,4232.436035,4441.666504,4297.94873,0,3,73,,,,0,4,4,4,4,4,4,4,4,4,4,4,4,4,4,100,,,,,,,,,,,,,,,,,11,0,0.572273,0.353943,-0.625488,0.394958,1.00148,-0.076173,-0.034668,-23.627069,-96.302742,1.644923
1648680181,1648680181,45,0,4314.358887,4293.717773,4274.743652,4318.333496,4312.94873,4279.102539,4265.769043,4314.871582,4373.077148,4336.282227,4320.769043,4230,4440.128418,4294.615234,0,3,73,,,,0,4,4,4,4,4,4,4,4,4,4,4,4,4,4,100,,,,,,,,,,,,,,,,,,,,,,,,,,,,
1648680181,1648680181,46,0,4321.794922,4309.102539,4284.102539,4325.512695,4325.384766,4286.538574,4277.307617,4322.94873,4385.641113,4335.384766,4331.666504,4239.615234,4443.333496,4305.897461,0,3,73,,,,0,4,4,4,4,4,4,4,4,4,4,4,4,4,4,100,,,,,,,,,,,,,,,,,,,,,,,,,,,,
1648680181,1648680181,47,0,4319.230957,4309.743652,4287.563965,4330.128418,4330.384766,4293.717773,4278.974121,4320.897461,4387.820313,4330.512695,4339.487305,4245.641113,4429.487305,4311.410156,0,3,73,,,,0,4,4,4,4,4,4,4,4,4,4,4,4,4,4,100,,,,,,,,,,,,,,,,,,,,,,,,,,,,
1648680181,1648680181,48,0,4325.641113,4303.077148,4290.384766,4332.563965,4326.025879,4295.512695,4274.230957,4320.769043,4382.820313,4340.769043,4348.077148,4250.897461,4409.358887,4314.230957,0,3,73,,,,0,4,4,4,4,4,4,4,4,4,4,4,4,4,4,100,,,,,,,,,,,,,,,,,12,0,0.572979,0.353088,-0.625671,0.394409,1.003433,-0.076661,-0.024414,-25.870146,-94.657814,2.093538
1648680181,1648680181,49,0,4317.05127,4291.410156,4279.358887,4315.769043,4306.025879,4274.871582,4263.461426,4313.205078,4371.282227,4339.743652,4336.538574,4242.179688,4420.641113,4307.436035,0,3,73,,,,0,4,4,4,4,4,4,4,4,4,4,4,4,4,4,100,,,,,,,,,,,,,,,,,,,,,,,,,,,,
1648680181,1648680181,50,0,4313.974121,4291.025879,4280.512695,4311.794922,4305.897461,4272.820313,4268.205078,4313.974121,4381.538574,4334.487305,4326.538574,4242.820313,4458.717773,4313.205078,0,3,73,,,,0,4,4,4,4,4,4,4,4,4,4,4,4,4,4,100,,,,,,,,,,,,,,,,,,,,,,,,,,,,
1648680181,1648680181,51,0,4316.025879,4294.358887,4282.05127,4317.820313,4304.102539,4270.897461,4263.077148,4304.358887,4368.333496,4318.333496,4318.846191,4239.743652,4445.256348,4310.897461,0,3,73,,,,0,4,4,4,4,4,4,4,4,4,4,4,4,4,4,100,,,,,,,,,,,,,,,,,,,,,,,,,,,,
1648680181,1648680181,52,0,4322.820313,4299.358887,4286.794922,4332.179688,4302.94873,4268.461426,4259.358887,4298.974121,4348.205078,4308.333496,4326.410156,4242.820313,4415.769043,4310.384766,0,3,73,,,,0,4,4,4,4,4,4,4,4,4,4,4,4,4,4,100,,,,,,,,,,,,,,,,,13,0,0.573607,0.352112,-0.625916,0.393982,1.008316,-0.068849,-0.025879,-25.122454,-94.657814,2.84123
1648680181,1648680181,53,0,4304.615234,4279.743652,4272.05127,4316.538574,4293.717773,4259.230957,4253.333496,4291.025879,4346.153809,4298.333496,4317.820313,4233.333496,4400.256348,4300.256348,0,3,73,,,,0,4,4,4,4,4,4,4,4,4,4,4,4,4,4,100,,,,,,,,,,,,,,,,,,,,,,,,,,,,
1648680181,1648680181,54,0,4294.743652,4276.410156,4262.94873,4303.077148,4298.333496,4265.384766,4258.974121,4300.897461,4362.179688,4307.05127,4312.05127,4229.615234,4400.769043,4296.666504,0,3,73,,,,0,4,4,4,4,4,4,4,4,4,4,4,4,4,4,100,,,,,,,,,,,,,,,,,,,,,,,,,,,,
1648680181,1648680181,55,0,4298.846191,4286.666504,4260.897461,4305.512695,4304.615234,4272.05127,4262.436035,4310.512695,4367.05127,4315.256348,4315,4229.743652,4387.436035,4294.487305,0,3,73,,,,0,4,4,4,4,4,4,4,4,4,4,4,4,4,4,100,,,,,,,,,,,,,,,,,,,,,,,,,,,,
1648680181,1648680181,56,0,4302.436035,4290.256348,4260.512695,4310.128418,4303.974121,4271.538574,4263.461426,4304.487305,4365.897461,4315.769043,4316.410156,4227.05127,4382.307617,4294.487305,0,3,73,,,,0,4,4,4,4,4,4,4,4,4,4,4,4,4,4,100,,,,,,,,,,,,,,,,,14,0,0.573857,0.351624,-0.626038,0.39386,1.015152,-0.062501,-0.038087,-24.5243,-97.05043,3.439384
1648680181,1648680181,57,0,4284.358887,4273.846191,4246.794922,4293.077148,4287.307617,4256.922852,4250.769043,4285.641113,4344.358887,4297.179688,4292.307617,4205,4382.179688,4276.410156,0,3,73,,,,0,4,4,4,4,4,4,4,4,4,4,4,4,4,4,100,,,,,,,,,,,,,,,,,,,,,,,,,,,,
1648680181,1648680181,58,0,4271.666504,4266.025879,4237.820313,4283.717773,4280.769043,4252.179688,4244.615234,4283.077148,4328.077148,4281.025879,4279.102539,4194.743652,4365.769043,4262.307617,0,3,73,,,,0,4,4,4,4,4,4,4,4,4,4,4,4,4,4,100,,,,,,,,,,,,,,,,,,,,,,,,,,,,
1648680181,1648680181,59,0,4277.307617,4271.282227,4242.692383,4293.717773,4290.512695,4261.922852,4251.794922,4290.769043,4343.589844,4288.461426,4294.358887,4206.410156,4353.077148,4271.282227,0,3,73,,,,0,4,4,4,4,4,4,4,4,4,4,4,4,4,4,100,,,,,,,,,,,,,,,,,,,,,,,,,,,,
1648680181,1648680181,60,0,4280.512695,4278.589844,4244.743652,4295.769043,4290.256348,4263.205078,4251.282227,4284.358887,4346.025879,4297.179688,4294.358887,4207.307617,4368.589844,4275.512695,0,3,73,,,,0,4,4,4,4,4,4,4,4,4,4,4,4,4,4,100,,,,,,,,,,,,,,,,,15,0,0.574215,0.351135,-0.626099,0.393677,1.022477,-0.061036,-0.030274,-24.5243,-94.508278,0.897231
1648680181,1648680181,61,0,4282.05127,4289.615234,4247.307617,4299.615234,4285.641113,4257.692383,4243.333496,4275.641113,4330,4290.384766,4284.487305,4201.794922,4380.769043,4274.487305,0,3,73,,,,0,4,4,4,4,4,4,4,4,4,4,4,4,4,4,100,,,,,,,,,,,,,,,,,,,,,,,,,,,,
1648680181,1648680181,62,0,4279.230957,4286.025879,4243.205078,4301.666504,4284.615234,4252.436035,4239.871582,4269.358887,4328.717773,4275.512695,4285.769043,4197.307617,4361.153809,4275.512695,0,3,73,,,,0,4,4,4,4,4,4,4,4,4,4,4,4,4,4,100,,,,,,,,,,,,,,,,,,,,,,,,,,,,
1648680181,1648680181,63,0,4274.743652,4271.922852,4236.922852,4294.615234,4282.94873,4252.692383,4242.436035,4272.307617,4337.179688,4279.230957,4290.897461,4196.282227,4347.820313,4274.358887,0,3,73,,,,0,4,4,4,4,4,4,4,4,4,4,4,4,4,4,100,,,,,,,,,,,,,,,,,,,,,,,,,,,,
1648680181,1648680181,64,0,4259.615234,4263.077148,4222.563965,4276.666504,4265.512695,4238.461426,4227.05127,4262.05127,4319.487305,4274.871582,4276.922852,4183.333496,4332.563965,4258.717773,3606,3,73,,,,0,4,4,4,4,4,4,4,4,4,4,4,4,4,4,100,,,,,,,,,,,,,,,,,16,0,0.57469,0.351135,-0.625854,0.393372,0.999527,-0.077638,-0.025391,-24.5243,-95.555046,0.448615
1648680181,1648680181,65,0,4266.153809,4279.487305,4227.436035,4283.717773,4266.794922,4236.538574,4226.153809,4262.563965,4319.358887,4276.410156,4282.05127,4188.974121,4334.102539,4268.846191,3585,3,73,,,,0,4,4,4,4,4,4,4,4,4,4,4,4,4,4,100,,,,,,,,,,,,,,,,,,,,,,,,,,,,
1648680181,1648680181,66,0,4272.692383,4283.717773,4233.077148,4289.358887,4273.974121,4245.641113,4237.820313,4268.205078,4327.436035,4268.333496,4281.922852,4192.563965,4350.641113,4275.769043,3590,3,73,,,,0,4,4,4,4,4,4,4,4,4,4,4,4,4,4,100,,,,,,,,,,,,,,,,,,,,,,,,,,,,
1648680181,1648680181,67,0,4269.358887,4276.794922,4233.333496,4286.410156,4277.692383,4253.333496,4244.102539,4274.487305,4331.922852,4262.820313,4275.641113,4191.153809,4352.307617,4269.743652,3084,3,73,,,,0,4,4,4,4,4,4,4,4,4,4,4,4,4,4,100,,,,,,,,,,,,,,,,,,,,,,,,,,,,
1648680181,1648680181,68,0,4251.666504,4259.230957,4218.717773,4272.820313,4260.769043,4235.769043,4230.256348,4262.820313,4319.743652,4261.922852,4266.922852,4178.717773,4311.410156,4256.153809,3630,3,73,,,,0,4,4,4,4,4,4,4,4,4,4,4,4,4,4,100,,,,,,,,,,,,,,,,,17,0,0.575368,0.351196,-0.625427,0.393005,1.002457,-0.06006,-0.017578,-26.169222,-93.611046,1.345846
1648680181,1648680181,69,0,4259.358887,4259.487305,4224.230957,4277.820313,4262.820313,4242.307617,4238.974121,4267.563965,4319.487305,4276.666504,4275.769043,4185.769043,4304.615234,4264.358887,3600,3,73,,,,0,4,4,4,4,4,4,4,4,4,4,4,4,4,4,100,,,,,,,,,,,,,,,,,,,,,,,,,,,,
1648680181,1648680181,70,0,4263.077148,4268.461426,4226.538574,4277.563965,4265.256348,4250.256348,4240.128418,4266.282227,4311.282227,4272.307617,4268.333496,4186.922852,4321.666504,4260.512695,3393,3,73,,,,0,4,4,4,4,4,4,4,4,4,4,4,4,4,4,100,,,,,,,,,,,,,,,,,,,,,,,,,,,,
1648680181,1648680181,71,0,4257.179688,4274.615234,4224.230957,4276.410156,4263.205078,4247.692383,4236.410156,4262.563965,4309.615234,4261.282227,4256.794922,4180.769043,4326.410156,4252.820313,3575,3,73,,,,0,4,4,4,4,4,4,4,4,4,4,4,4,4,4,100,,,,,,,,,,,,,,,,,,,,,,,,,,,,
1648680181,1648680181,72,0,4254.102539,4264.615234,4224.871582,4275.641113,4261.666504,4248.333496,4242.307617,4269.102539,4318.077148,4260.512695,4256.153809,4182.820313,4314.358887,4256.410156,3555,3,73,,,,0,4,4,4,4,4,4,4,4,4,4,4,4,4,4,100,,,,,,,,,,,,,,,,,18,0,0.575904,0.351135,-0.625122,0.392761,1.030777,-0.07422,-0.015625,-25.122454,-95.10643,-0.299077
1648680181,1648680181,73,0,4260.641113,4267.307617,4232.436035,4280.512695,4270.769043,4258.077148,4249.358887,4277.179688,4324.230957,4268.717773,4266.538574,4192.94873,4309.615234,4266.153809,3580,3,73,,,,0,4,4,4,4,4,4,4,4,4,4,4,4,4,4,100,,,,,,,,,,,,,,,,,,,,,,,,,,,,
1648680181,1648680181,74,0,4256.666504,4268.846191,4228.077148,4281.025879,4270.256348,4251.922852,4239.358887,4273.077148,4318.205078,4270.128418,4269.358887,4188.333496,4305.897461,4261.666504,3590,3,73,,,,0,4,4,4,4,4,4,4,4,4,4,4,4,4,4,100,,,,,,,,,,,,,,,,,,,,,,,,,,,,
1648680181,1648680181,75,0,4253.333496,4265,4225.384766,4281.153809,4264.230957,4248.589844,4239.871582,4275,4316.282227,4268.077148,4267.179688,4185.256348,4291.282227,4257.307617,3598,3,73,,,,0,4,4,4,4,4,4,4,4,4,4,4,4,4,4,100,,,,,,,,,,,,,,,,,,,,,,,,,,,,
1648680181,1648680181,76,0,4261.153809,4270.256348,4234.743652,4287.307617,4267.307617,4255,4247.179688,4287.307617,4328.974121,4270.897461,4274.230957,4196.025879,4279.743652,4263.589844,3600,3,73,,,,0,4,4,4,4,4,4,4,4,4,4,4,4,4,4,100,,,,,,,,,,,,,,,,,19,0,0.576327,0.350891,-0.625061,0.392456,1.000015,-0.067872,-0.02002,-25.271992,-96.302742,2.243076
1648680181,1648680181,77,0,4261.794922,4268.077148,4232.307617,4282.179688,4260.897461,4242.05127,4233.205078,4277.692383,4326.538574,4268.333496,4267.05127,4191.282227,4285.897461,4259.871582,3600,3,73,,,,0,4,4,4,4,4,4,4,4,4,4,4,4,4,4,100,,,,,,,,,,,,,,,,,,,,,,,,,,,,
1648680181,1648680181,78,0,4262.179688,4260.512695,4232.307617,4279.871582,4256.153809,4239.487305,4231.666504,4269.487305,4323.461426,4272.307617,4257.94873,4185.897461,4316.794922,4262.436035,3590,3,73,,,,0,4,4,4,4,4,4,4,4,4,4,4,4,4,4,100,,,,,,,,,,,,,,,,,,,,,,,,,,,,
1648680181,1648680181,79,0,4262.307617,4263.205078,4235.897461,4281.282227,4260,4253.589844,4243.077148,4277.179688,4325.641113,4275.384766,4265.769043,4191.025879,4318.205078,4268.717773,3598,3,73,,,,0,4,4,4,4,4,4,4,4,4,4,4,4,4,4,100,,,,,,,,,,,,,,,,,,,,,,,,,,,,
1648680181,1648680181,80,0,4267.05127,4273.846191,4240.128418,4285.128418,4263.333496,4256.666504,4241.153809,4284.230957,4331.410156,4278.846191,4282.307617,4202.179688,4298.717773,4273.974121,3600,3,73,,,,0,4,4,4,4,4,4,4,4,4,4,4,4,4,4,100,,,,,,,,,,,,,,,,,20,0,0.576517,0.350525,-0.625244,0.392212,1.016617,-0.071778,-0.019043,-24.673838,-95.854126,1.794461
1648680181,1648680181,81,0,4259.615234,4260.897461,4228.333496,4271.666504,4244.358887,4231.794922,4217.94873,4262.563965,4317.179688,4268.077148,4267.692383,4191.794922,4288.205078,4264.102539,3600,3,73,,,,0,4,4,4,4,4,4,4,4,4,4,4,4,4,4,100,,,,,,,,,,,,,,,,,,,,,,,,,,,,
1648680181,1648680181,82,0,4264.230957,4256.794922,4230.256348,4270.769043,4245,4230.384766,4222.307617,4263.205078,4307.179688,4270.256348,4258.589844,4192.307617,4301.666504,4268.333496,3590,3,73,,,,0,4,4,4,4,4,4,4,4,4,4,4,4,4,4,100,,,,,,,,,,,,,,,,,,,,,,,,,,,,
1648680181,1648680181,83,0,4261.794922,4260.512695,4227.05127,4271.794922,4248.589844,4235.512695,4230,4272.94873,4306.025879,4270.256348,4256.538574,4191.538574,4301.153809,4266.025879,3598,3,73,,,,0,4,4,4,4,4,4,4,4,4,4,4,4,4,4,100,,,,,,,,,,,,,,,,,,,,,,,,,,,,
1648680181,1648680181,84,0,4262.692383,4267.436035,4228.461426,4276.538574,4252.94873,4242.05127,4232.820313,4277.05127,4323.717773,4279.743652,4266.794922,4196.410156,4296.410156,4267.692383,3600,3,73,,,,0,4,4,4,4,4,4,4,4,4,4,4,4,4,4,100,,,,,,,,,,,,,,,,,21,0,0.576856,0.350159,-0.625366,0.391846,1.00734,-0.070314,-0.009277,-24.673838,-94.657814,1.345846
1648680181,1648680181,85,0,4256.282227,4262.436035,4223.205078,4269.230957,4247.179688,4239.743652,4225.512695,4265.256348,4322.563965,4278.333496,4264.871582,4188.333496,4278.846191,4263.205078,3600,3,73,,,,0,4,4,4,4,4,4,4,4,4,4,4,4,4,4,100,,,,,,,,,,,,,,,,,,,,,,,,,,,,
1648680181,1648680181,86,0,4260.384766,4270,4224.487305,4271.794922,4252.179688,4245.769043,4230.128418,4269.102539,4318.205078,4276.538574,4267.94873,4189.615234,4276.538574,4268.461426,3590,3,73,,,,0,4,4,4,4,4,4,4,4,4,4,4,4,4,4,100,,,,,,,,,,,,,,,,,,,,,,,,,,,,
1648680181,1648680181,87,0,4262.436035,4273.717773,4226.794922,4273.333496,4253.846191,4246.025879,4231.794922,4272.563965,4317.179688,4274.743652,4267.94873,4194.615234,4286.666504,4272.436035,3598,3,73,,,,0,4,4,4,4,4,4,4,4,4,4,4,4,4,4,100,,,,,,,,,,,,,,,,,,,,,,,,,,,,
1648680181,1648680181,88,0,4257.179688,4261.538574,4225.128418,4271.538574,4251.794922,4244.358887,4235.128418,4271.794922,4315.769043,4270.769043,4265.256348,4193.205078,4288.077148,4268.846191,3600,3,73,,,,0,4,4,4,4,4,4,4,4,4,4,4,4,4,4,100,,,,,,,,,,,,,,,,,22,0,0.576893,0.349976,-0.625549,0.391663,1.008316,-0.0542,-0.030274,-24.075686,-97.05043,1.943999
1648680181,1648680181,89,0,4240.897461,4242.94873,4210.384766,4257.436035,4240.256348,4233.461426,4230.897461,4266.794922,4303.717773,4257.307617,4258.205078,4177.05127,4262.436035,4250.769043,3600,3,73,,,,0,4,4,4,4,4,4,4,4,4,4,4,4,4,4,100,,,,,,,,,,,,,,,,,,,,,,,,,,,,
1648680181,1648680181,90,0,4239.871582,4255.256348,4211.153809,4256.538574,4238.461426,4231.538574,4227.307617,4262.563965,4301.025879,4259.487305,4259.230957,4172.820313,4258.333496,4246.538574,3590,3,73,,,,0,4,4,4,4,4,4,4,4,4,4,4,4,4,4,100,,,,,,,,,,,,,,,,,,,,,,,,,,,,
1648680181,1648680181,91,0,4258.077148,4275.769043,4227.94873,4272.94873,4250.512695,4245,4234.871582,4266.410156,4309.230957,4274.230957,4267.436035,4188.974121,4275.256348,4263.461426,3598,3,73,,,,0,4,4,4,4,4,4,4,4,4,4,4,4,4,4,100,,,,,,,,,,,,,,,,,,,,,,,,,,,,
1648680181,1648680181,92,0,4257.179688,4263.461426,4221.410156,4269.743652,4250.384766,4245.256348,4237.307617,4261.282227,4305.128418,4267.94873,4263.077148,4189.358887,4259.230957,4261.922852,3600,3,73,,,,0,4,4,4,4,4,4,4,4,4,4,4,4,4,4,100,,,,,,,,,,,,,,,,,23,0,0.576831,0.350037,-0.62561,0.391602,0.998062,-0.057618,-0.016602,-24.673838,-96.153198,1.046769
1648680181,1648680181,93,0,4248.333496,4249.615234,4214.102539,4260.128418,4246.538574,4240,4230.769043,4256.794922,4300.128418,4261.922852,4260.769043,4182.820313,4249.871582,4256.025879,3600,3,73,,,,0,4,4,4,4,4,4,4,4,4,4,4,4,4,4,100,1,58.333332,4,4,4,3,3,3,4,3,3,3,3,4,1,4,,,,,,,,,,,,
1648680181,1648680181,94,0,4249.743652,4257.563965,4220.256348,4259.230957,4242.94873,4238.461426,4221.794922,4256.666504,4293.461426,4261.410156,4257.436035,4186.282227,4265.897461,4260.128418,3590,3,73,,,,0,4,4,4,4,4,4,4,4,4,4,4,4,4,4,100,,,,,,,,,,,,,,,,,,,,,,,,,,,,
1648680181,1648680181,95,0,4254.615234,4264.358887,4226.410156,4265.769043,4242.94873,4239.871582,4222.94873,4260.128418,4295.769043,4266.666504,4257.179688,4193.205078,4269.871582,4264.871582,3598,3,73,,,,0,4,4,4,4,4,4,4,4,4,4,4,4,4,4,100,,,,,,,,,,,,,,,,,,,,,,,,,,,,
1648680181,1648680181,96,0,4243.333496,4255.128418,4214.871582,4258.461426,4238.717773,4231.153809,4220.256348,4249.358887,4292.563965,4261.666504,4256.025879,4180.384766,4246.410156,4252.436035,3600,3,73,,,,0,4,4,4,4,4,4,4,4,4,4,4,4,4,4,100,,,,,,,,,,,,,,,,,24,0,0.576803,0.35022,-0.62561,0.391479,1.013199,-0.055177,-0.029297,-25.870146,-96.900894,3.289845
1648680181,1648680181,97,0,4250.256348,4262.307617,4219.871582,4266.410156,4251.025879,4240.897461,4229.871582,4260,4304.102539,4272.179688,4270.384766,4186.794922,4254.871582,4259.743652,3600,3,73,,,,0,4,4,4,4,4,4,4,4,4,4,4,4,4,4,100,,,,,,,,,,,,,,,,,,,,,,,,,,,,
1648680181,1648680181,98,0,4261.153809,4268.846191,4227.307617,4276.922852,4259.102539,4247.563965,4238.077148,4275.769043,4315.256348,4280.512695,4271.666504,4196.538574,4273.461426,4271.025879,3590,3,73,,,,0,4,4,4,4,4,4,4,4,4,4,4,4,4,4,100,,,,,,,,,,,,,,,,,,,,,,,,,,,,
1648680181,1648680181,99,0,4272.820313,4274.102539,4241.153809,4286.666504,4266.538574,4254.615234,4250.256348,4286.025879,4323.846191,4291.538574,4280.384766,4207.179688,4282.179688,4285,3598,3,73,,,,0,4,4,4,4,4,4,4,4,4,4,4,4,4,4,100,,,,,,,,,,,,,,,,,,,,,,,,,,,,
1648680181,1648680181,100,0,4267.692383,4269.487305,4238.461426,4276.025879,4258.717773,4251.410156,4245.897461,4280.897461,4315.512695,4290,4290.384766,4207.563965,4263.974121,4281.153809,3600,3,73,,,,0,4,4,4,4,4,4,4,4,4,4,4,4,4,4,100,,,,,,,,,,,,,,,,,25,0,0.577085,0.350464,-0.625366,0.391235,1.01857,-0.06006,-0.019043,-24.225224,-95.40551,3.289845
1648680181,1648680181,101,0,4273.077148,4273.589844,4241.025879,4278.205078,4261.410156,4257.179688,4246.794922,4290.512695,4320.512695,4293.205078,4293.846191,4214.487305,4261.922852,4284.230957,3600,3,73,,,,0,4,4,4,4,4,4,4,4,4,4,4,4,4,4,100,,,,,,,,,,,,,,,,,,,,,,,,,,,,
1648680181,1648680181,102,0,4271.794922,4267.94873,4241.282227,4283.205078,4260.384766,4255,4246.538574,4291.794922,4324.230957,4290.512695,4271.410156,4209.615234,4276.922852,4285.256348,3590,3,73,,,,0,4,4,4,4,4,4,4,4,4,4,4,4,4,4,100,,,,,,,,,,,,,,,,,,,,,,,,,,,,
1648680181,1648680181,103,0,4273.589844,4268.461426,4245.384766,4287.436035,4266.538574,4259.487305,4252.05127,4293.205078,4326.410156,4293.974121,4276.025879,4214.871582,4284.615234,4290.128418,3598,3,73,,,,0,4,4,4,4,4,4,4,4,4,4,4,4,4,4,100,,,,,,,,,,,,,,,,,,,,,,,,,,,,
1648680181,1648680181,104,0,4281.794922,4273.974121,4252.179688,4291.410156,4271.025879,4263.846191,4251.666504,4299.487305,4330.641113,4304.358887,4305.897461,4228.717773,4267.94873,4295.128418,3600,3,73,,,,0,4,4,4,4,4,4,4,4,4,4,4,4,4,4,100,,,,,,,,,,,,,,,,,26,0,0.576995,0.350708,-0.625427,0.391052,1.006851,-0.069337,-0.020996,-23.477531,-93.611046,2.84123
1648680181,1648680181,105,0,4289.743652,4279.102539,4257.563965,4298.333496,4269.230957,4263.846191,4249.871582,4298.589844,4332.692383,4304.871582,4306.922852,4226.410156,4262.820313,4296.153809,3600,3,73,,,,0,4,4,4,4,4,4,4,4,4,4,4,4,4,4,100,,,,,,,,,,,,,,,,,,,,,,,,,,,,
1648680181,1648680181,106,0,4283.333496,4273.077148,4248.717773,4292.563965,4261.538574,4258.205078,4245,4286.922852,4319.102539,4289.743652,4281.538574,4212.05127,4270.769043,4288.589844,3590,3,73,,,,0,4,4,4,4,4,4,4,4,4,4,4,4,4,4,100,,,,,,,,,,,,,,,,,,,,,,,,,,,,
1648680181,1648680181,107,0,4279.615234,4271.538574,4247.563965,4288.717773,4267.436035,4262.179688,4246.025879,4289.871582,4313.333496,4288.333496,4281.410156,4217.563965,4279.358887,4291.666504,3598,3,73,,,,0,4,4,4,4,4,4,4,4,4,4,4,4,4,4,100,,,,,,,,,,,,,,,,,,,,,,,,,,,,
1648680181,1648680181,108,0,4293.717773,4283.846191,4265.512695,4305,4281.794922,4275.256348,4257.05127,4308.461426,4332.820313,4303.974121,4302.436035,4235.128418,4282.692383,4307.307617,3600,3,73,,,,0,4,4,4,4,4,4,4,4,4,4,4,4,4,4,100,,,,,,,,,,,,,,,,,27,0,0.576983,0.350891,-0.625488,0.390808,1.000504,-0.079103,-0.016114,-22.430761,-94.807358,1.644923
1648680181,1648680181,109,0,4287.563965,4279.871582,4254.358887,4297.820313,4269.615234,4266.922852,4249.358887,4297.436035,4326.538574,4291.282227,4287.94873,4214.358887,4251.025879,4287.05127,3600,3,73,,,,0,4,4,4,4,4,4,4,4,4,4,4,4,4,4,100,,,,,,,,,,,,,,,,,,,,,,,,,,,,
1648680181,1648680181,110,0,4282.820313,4272.563965,4243.589844,4284.102539,4267.820313,4265.512695,4244.615234,4291.153809,4314.743652,4288.717773,4278.846191,4202.563965,4229.102539,4278.717773,3590,3,73,,,,0,4,4,4,4,4,4,4,4,4,4,4,4,4,4,100,,,,,,,,,,,,,,,,,,,,,,,,,,,,
1648680181,1648680181,111,0,4286.025879,4268.077148,4251.410156,4283.205078,4275.641113,4266.794922,4246.538574,4291.666504,4314.358887,4300,4286.794922,4215.256348,4241.922852,4292.436035,3598,3,73,,,,0,4,4,4,4,4,4,4,4,4,4,4,4,4,4,100,,,,,,,,,,,,,,,,,,,,,,,,,,,,
1648680181,1648680181,112,0,4285.897461,4276.922852,4260.769043,4294.358887,4280.128418,4270.384766,4252.179688,4291.153809,4320.128418,4301.153809,4291.922852,4224.358887,4255,4293.846191,3600,3,73,,,,0,4,4,4,4,4,4,4,4,4,4,4,4,4,4,100,,,,,,,,,,,,,,,,,28,0,0.577251,0.35083,-0.625732,0.390076,1.017594,-0.083986,-0.019532,-23.926146,-95.10643,3.289845
1648680181,1648680181,113,0,4274.102539,4281.666504,4247.05127,4290.769043,4269.102539,4267.820313,4244.487305,4281.025879,4310.641113,4281.922852,4284.102539,4209.487305,4224.871582,4278.461426,3600,3,73,,,,0,4,4,4,4,4,4,4,4,4,4,4,4,4,4,100,,,,,,,,,,,,,,,,,,,,,,,,,,,,
1648680181,1648680181,114,0,4282.820313,4280.128418,4252.563965,4292.436035,4273.846191,4275.384766,4246.922852,4287.179688,4319.230957,4291.410156,4297.94873,4220.512695,4230.897461,4292.307617,3590,3,73,,,,0,4,4,4,4,4,4,4,4,4,4,4,4,4,4,100,,,,,,,,,,,,,,,,,,,,,,,,,,,,
1648680181,1648680181,115,0,4287.436035,4267.179688,4258.846191,4288.589844,4275.769043,4270.256348,4244.230957,4292.436035,4321.410156,4300.384766,4300.256348,4228.846191,4247.05127,4295.512695,3598,3,73,,,,0,4,4,4,4,4,4,4,4,4,4,4,4,4,4,100,,,,,,,,,,,,,,,,,,,,,,,,,,,,
1648680181,1648680181,116,0,4294.743652,4280.256348,4266.410156,4298.077148,4283.205078,4274.615234,4249.358887,4306.153809,4323.717773,4306.794922,4305.897461,4227.820313,4225.769043,4291.410156,3600,3,73,,,,0,4,4,4,4,4,4,4,4,4,4,4,4,4,4,100,,,,,,,,,,,,,,,,,29,1,0.577838,0.350749,-0.626017,0.388814,1.014989,-0.080405,-0.020183,-24.225224,-94.907043,3.339691
1648680181,1648680181,117,0,4288.974121,4288.205078,4259.102539,4296.922852,4278.333496,4274.102539,4247.179688,4295.512695,4317.436035,4301.538574,4297.563965,4217.05127,4217.820313,4286.025879,3600,3,73,,,,0,4,4,4,4,4,4,4,4,4,4,4,4,4,4,100,,,,,,,,,,,,,,,,,,,,,,,,,,,,
1648680181,1648680181,118,0,4285.128418,4281.025879,4255.384766,4292.563965,4275.384766,4275,4247.94873,4286.922852,4314.102539,4297.05127,4281.538574,4218.846191,4261.410156,4289.871582,3590,3,73,,,,0,4,4,4,4,4,4,4,4,4,4,4,4,4,4,100,,,,,,,,,,,,,,,,,,,,,,,,,,,,
1648680181,1648680181,119,0,4290.128418,4278.846191,4263.461426,4297.05127,4280.769043,4279.487305,4250,4302.563965,4322.563965,4301.666504,4285,4228.589844,4264.230957,4298.717773,3598,3,73,,,,0,4,4,4,4,4,4,4,4,4,4,4,4,4,4,100,,,,,,,,,,,,,,,,,,,,,,,,,,,,
1648680181,1648680181,120,1,4289.029297,4277.94873,4263.003906,4295.952148,4281.153809,4280.091797,4251.263672,4303.424805,4321.19043,4299.157715,4283.040527,4227.966797,4257.783691,4297.655762,3596.857178,3,73,,,,0,4,4,4,4,4,4,4,4,4,4,4,4,4,4,100,,,,,,,,,,,,,,,,,30,1,0.578426,0.350667,-0.626302,0.387553,1.012385,-0.076824,-0.020834,-24.5243,-94.707664,3.389537
1648680181,1648680181,121,1,4287.930176,4277.05127,4262.545898,4294.853516,4281.538574,4280.695801,4252.527344,4304.285645,4319.816895,4296.648438,4281.080566,4227.344238,4251.336914,4296.593262,3595.714355,3,73,,,,0,4,4,4,4,4,4,4,4,4,4,4,4,4,4,100,,,,,,,,,,,,,,,,,,,,,,,,,,,,
1648680181,1648680181,122,1,4286.831543,4276.153809,4262.087891,4293.754395,4281.922852,4281.300293,4253.791016,4305.146484,4318.443359,4294.13916,4279.121094,4226.72168,4244.890137,4295.53125,3594.571533,3,73,,,,0,4,4,4,4,4,4,4,4,4,4,4,4,4,4,100,,,,,,,,,,,,,,,,,,,,,,,,,,,,
1648680181,1648680181,123,1,4285.732422,4275.256348,4261.629883,4292.655762,4282.307617,4281.904785,4255.055176,4306.007324,4317.069824,4291.629883,4277.161133,4226.099121,4238.443359,4294.46875,3593.428467,3,73,,,,0,4,4,4,4,4,4,4,4,4,4,4,4,4,4,100,,,,,,,,,,,,,,,,,,,,,,,,,,,,
1648680181,1648680181,124,1,4284.633789,4274.358887,4261.172363,4291.556641,4282.692383,4282.509277,4256.318848,4306.868164,4315.695801,4289.121094,4275.20166,4225.476074,4231.996094,4293.406738,3592.285645,3,73,,,,0,4,4,4,4,4,4,4,4,4,4,4,4,4,4,100,,,,,,,,,,,,,,,,,31,0,0.579014,0.350586,-0.626587,0.386292,1.009781,-0.073243,-0.021485,-24.823378,-94.508278,3.439384
1648680181,1648680181,125,1,4283.534668,4273.461426,4260.714355,4290.458008,4283.077148,4283.11377,4257.58252,4307.729004,4314.322266,4286.611816,4273.241699,4224.853516,4225.549316,4292.344238,3591.142822,3,73,,,,0,4,4,4,4,4,4,4,4,4,4,4,4,4,4,100,,,,,,,,,,,,,,,,,,,,,,,,,,,,
1648680181,1648680181,126,0,4282.436035,4272.563965,4260.256348,4289.358887,4283.461426,4283.717773,4258.846191,4308.589844,4312.94873,4284.102539,4271.282227,4224.230957,4219.102539,4291.282227,3590,3,73,,,,0,4,4,4,4,4,4,4,4,4,4,4,4,4,4,100,,,,,,,,,,,,,,,,,,,,,,,,,,,,
1648680181,1648680181,127,0,4287.94873,4274.871582,4268.846191,4299.230957,4295.641113,4295.769043,4265.512695,4322.563965,4326.794922,4293.846191,4281.666504,4231.153809,4204.871582,4293.077148,55,3,73,,,,0,4,4,4,4,4,4,4,4,4,4,4,4,4,4,100,,,,,,,,,,,,,,,,,,,,,,,,,,,,
1648680181,1648680182,0,0,4279.358887,4271.922852,4261.794922,4290.384766,4283.077148,4285.512695,4256.538574,4322.820313,4323.589844,4296.282227,4280.769043,4221.153809,4166.922852,4287.179688,3592,3,73,,,,0,4,4,4,4,4,4,4,4,4,4,4,4,4,4,100,,,,,,,,,,,,,,,,,0,0,0.579255,0.350708,-0.626709,0.38562,1.008316,-0.047364,-0.03125,-24.225224,-94.358742,1.345846
1648680181,1648680182,1,0,4285.256348,4275.897461,4265.897461,4291.025879,4281.538574,4283.077148,4262.692383,4325,4333.589844,4305.128418,4291.538574,4232.307617,4179.358887,4293.461426,3582,3,73,,,,0,4,4,4,4,4,4,4,4,4,4,4,4,4,4,100,,,,,,,,,,,,,,,,,,,,,,,,,,,,
1648680182,1648680182,2,0,4287.436035,4268.589844,4266.538574,4290.769043,4284.102539,4280,4264.743652,4320.256348,4336.538574,4304.102539,4290.897461,4240.512695,4213.589844,4294.871582,3590,3,73,,,,0,4,4,4,4,4,4,4,4,4,4,4,4,4,4,100,,,,,,,,,,,,,,,,,,,,,,,,,,,,
1648680182,1648680182,3,0,4296.538574,4276.794922,4275.897461,4302.563965,4290.256348,4283.589844,4265.128418,4328.077148,4328.077148,4310,4288.974121,4241.282227,4221.666504,4305.384766,3080,3,73,,,,0,4,4,4,4,4,4,4,4,4,4,4,4,4,4,100,,,,,,,,,,,,,,,,,,,,,,,,,,,,
1648680182,1648680182,4,0,4299.230957,4279.871582,4277.692383,4304.487305,4286.538574,4280.897461,4254.743652,4326.153809,4313.589844,4302.94873,4281.666504,4232.563965,4205.256348,4305.256348,3637,3,73,,,,0,4,4,4,4,4,4,4,4,4,4,4,4,4,4,100,,,,,,,,,,,,,,,,,1,0,0.579736,0.350952,-0.626953,0.384277,1.000992,-0.053712,-0.025879,-23.627069,-95.555046,2.243076
1648680182,1648680182,5,0,4302.05127,4276.153809,4281.025879,4305.384766,4297.820313,4293.205078,4260.641113,4324.487305,4330.384766,4305.512695,4298.717773,4242.563965,4205.897461,4305.256348,3604,3,73,,,,0,4,4,4,4,4,4,4,4,4,4,4,4,4,4,100,,,,,,,,,,,,,,,,,,,,,,,,,,,,
1648680182,1648680182,6,0,4298.717773,4276.282227,4280.897461,4303.717773,4306.794922,4304.102539,4271.282227,4326.025879,4348.077148,4317.94873,4314.743652,4250,4195,4306.153809,3381,3,73,,,,0,4,4,4,4,4,4,4,4,4,4,4,4,4,4,100,,,,,,,,,,,,,,,,,,,,,,,,,,,,
1648680182,1648680182,7,0,4305,4287.94873,4285.769043,4310.769043,4309.102539,4309.230957,4277.436035,4336.922852,4349.102539,4323.461426,4306.153809,4248.717773,4189.743652,4314.230957,3578,3,73,,,,0,4,4,4,4,4,4,4,4,4,4,4,4,4,4,100,,,,,,,,,,,,,,,,,,,,,,,,,,,,
1648680182,1648680182,8,0,4315.384766,4286.794922,4289.743652,4316.666504,4308.974121,4308.846191,4276.025879,4340.384766,4345.769043,4320,4297.307617,4250.512695,4200,4320.128418,3563,3,73,,,,0,4,4,4,4,4,4,4,4,4,4,4,4,4,4,100,,,,,,,,,,,,,,,,,2,0,0.580013,0.351318,-0.627014,0.383423,1.017594,-0.030274,-0.026856,-24.075686,-94.508278,2.691691
1648680182,1648680182,9,0,4317.436035,4288.205078,4291.282227,4318.717773,4313.333496,4312.820313,4278.589844,4337.692383,4346.282227,4319.102539,4305.769043,4255,4210.769043,4322.563965,3592,3,73,,,,0,4,4,4,4,4,4,4,4,4,4,4,4,4,4,100,,,,,,,,,,,,,,,,,,,,,,,,,,,,
1648680182,1648680182,10,0,4311.282227,4294.871582,4291.538574,4317.820313,4312.692383,4313.717773,4275.769043,4339.102539,4349.358887,4320,4309.615234,4253.846191,4204.743652,4320.128418,3597,3,73,,,,0,4,4,4,4,4,4,4,4,4,4,4,4,4,4,100,,,,,,,,,,,,,,,,,,,,,,,,,,,,
1648680182,1648680182,11,0,4304.743652,4287.179688,4282.436035,4309.615234,4305.769043,4305.128418,4266.025879,4337.179688,4348.333496,4318.333496,4298.974121,4247.820313,4201.666504,4312.05127,3606,3,73,,,,0,4,4,4,4,4,4,4,4,4,4,4,4,4,4,100,,,,,,,,,,,,,,,,,,,,,,,,,,,,
1648680182,1648680182,12,0,4306.794922,4276.666504,4278.974121,4310.384766,4308.846191,4302.820313,4267.692383,4338.589844,4348.589844,4321.025879,4301.538574,4256.282227,4206.153809,4318.333496,3635,3,73,,,,0,4,4,4,4,4,4,4,4,4,4,4,4,4,4,100,,,,,,,,,,,,,,,,,3,0,0.580194,0.351746,-0.626831,0.383057,1.003922,-0.039063,-0.029297,-24.673838,-94.657814,2.84123
1648680182,1648680182,13,0,4303.974121,4274.743652,4278.589844,4310.641113,4304.615234,4299.871582,4263.846191,4325.256348,4336.794922,4309.102539,4299.487305,4255.256348,4187.05127,4317.563965,3627,3,73,,,,0,4,4,4,4,4,4,4,4,4,4,4,4,4,4,100,,,,,,,,,,,,,,,,,,,,,,,,,,,,
1648680182,1648680182,14,0,4315.384766,4291.666504,4293.589844,4321.025879,4310.256348,4310.769043,4268.974121,4327.820313,4339.230957,4313.846191,4306.153809,4258.333496,4190.128418,4320.641113,3597,3,73,,,,0,4,4,4,4,4,4,4,4,4,4,4,4,4,4,100,,,,,,,,,,,,,,,,,,,,,,,,,,,,
1648680182,1648680182,15,0,4322.05127,4299.358887,4299.615234,4325.769043,4320.641113,4318.589844,4278.974121,4342.820313,4347.94873,4324.102539,4313.077148,4263.333496,4205.128418,4327.820313,3606,3,73,,,,0,4,4,4,4,4,4,4,4,4,4,4,4,4,4,100,,,,,,,,,,,,,,,,,,,,,,,,,,,,
1648680182,1648680182,16,0,4321.153809,4292.820313,4300,4330.256348,4328.205078,4320.897461,4282.436035,4350.384766,4358.846191,4323.846191,4311.153809,4267.307617,4219.358887,4334.615234,0,3,73,,,,0,4,4,4,4,4,4,4,4,4,4,4,4,4,4,100,,,,,,,,,,,,,,,,,4,0,0.58035,0.35199,-0.626587,0.382996,1.006363,-0.038575,-0.036622,-24.075686,-95.555046,2.691691
1648680182,1648680182,17,0,4310,4277.436035,4288.846191,4318.846191,4317.179688,4310.897461,4268.077148,4333.077148,4351.666504,4311.666504,4298.333496,4256.538574,4203.077148,4320.256348,0,3,73,,,,0,4,4,4,4,4,4,4,4,4,4,4,4,4,4,100,,,,,,,,,,,,,,,,,,,,,,,,,,,,
1648680182,1648680182,18,0,4315.769043,4279.487305,4290.897461,4312.94873,4320.256348,4316.538574,4273.717773,4336.538574,4353.589844,4323.974121,4312.820313,4263.461426,4194.487305,4327.179688,0,3,73,,,,0,4,4,4,4,4,4,4,4,4,4,4,4,4,4,100,,,,,,,,,,,,,,,,,,,,,,,,,,,,
1648680182,1648680182,19,0,4313.974121,4284.487305,4291.410156,4313.461426,4318.589844,4314.615234,4277.307617,4343.077148,4352.436035,4324.743652,4314.871582,4267.05127,4199.871582,4336.666504,0,3,73,,,,0,4,4,4,4,4,4,4,4,4,4,4,4,4,4,100,,,,,,,,,,,,,,,,,,,,,,,,,,,,
1648680182,1648680182,20,0,4316.025879,4297.820313,4297.820313,4328.717773,4319.615234,4314.743652,4275.512695,4338.974121,4348.461426,4312.94873,4302.692383,4264.615234,4204.487305,4332.436035,0,3,73,,,,0,4,4,4,4,4,4,4,4,4,4,4,4,4,4,100,,,,,,,,,,,,,,,,,5,0,0.580683,0.352051,-0.626282,0.382935,1.000992,-0.048829,-0.02002,-23.926146,-94.657814,2.093538
1648680182,1648680182,21,0,4309.615234,4285.897461,4290.512695,4319.487305,4314.871582,4314.102539,4268.974121,4330.128418,4338.974121,4303.589844,4290.128418,4251.538574,4186.153809,4315.256348,0,3,73,,,,0,4,4,4,4,4,4,4,4,4,4,4,4,4,4,100,,,,,,,,,,,,,,,,,,,,,,,,,,,,
1648680182,1648680182,22,0,4302.820313,4270.128418,4283.205078,4304.102539,4313.717773,4317.307617,4274.230957,4337.307617,4346.153809,4313.974121,4297.563965,4251.794922,4184.358887,4316.922852,0,3,73,,,,0,4,4,4,4,4,4,4,4,4,4,4,4,4,4,100,,,,,,,,,,,,,,,,,,,,,,,,,,,,
1648680182,1648680182,23,0,4301.282227,4279.871582,4286.282227,4313.846191,4315.128418,4316.538574,4275.384766,4342.179688,4355,4322.436035,4305.512695,4258.589844,4192.94873,4323.205078,0,3,73,,,,0,4,4,4,4,4,4,4,4,4,4,4,4,4,4,100,,,,,,,,,,,,,,,,,,,,,,,,,,,,
1648680182,1648680182,24,0,4310.256348,4295.384766,4294.871582,4330.128418,4320.128418,4316.922852,4273.846191,4341.538574,4352.05127,4318.461426,4303.846191,4259.230957,4183.974121,4324.230957,0,3,73,,,,0,4,4,4,4,4,4,4,4,4,4,4,4,4,4,100,,,,,,,,,,,,,,,,,6,0,0.580789,0.351501,-0.626343,0.383179,1.014664,-0.048829,-0.026856,-24.823378,-94.209198,2.990768
1648680182,1648680182,25,0,4308.589844,4281.153809,4287.692383,4318.333496,4314.358887,4312.563965,4271.666504,4335.512695,4340,4310.384766,4292.94873,4251.666504,4181.282227,4318.717773,0,3,73,,,,0,4,4,4,4,4,4,4,4,4,4,4,4,4,4,100,,,,,,,,,,,,,,,,,,,,,,,,,,,,
1648680182,1648680182,26,0,4294.102539,4268.846191,4272.436035,4298.461426,4302.820313,4303.461426,4269.487305,4327.820313,4332.307617,4305.897461,4287.179688,4247.179688,4190.769043,4313.205078,0,3,73,,,,0,4,4,4,4,4,4,4,4,4,4,4,4,4,4,100,,,,,,,,,,,,,,,,,,,,,,,,,,,,
1648680182,1648680182,27,0,4289.871582,4276.025879,4272.307617,4302.05127,4298.205078,4298.717773,4267.563965,4328.717773,4338.461426,4305.256348,4290.256348,4249.102539,4178.717773,4312.820313,0,3,73,,,,0,4,4,4,4,4,4,4,4,4,4,4,4,4,4,100,,,,,,,,,,,,,,,,,,,,,,,,,,,,
1648680182,1648680182,28,0,4284.743652,4272.94873,4269.743652,4302.820313,4290.512695,4292.436035,4261.794922,4323.717773,4332.307617,4298.333496,4281.538574,4236.922852,4154.230957,4300.384766,0,3,73,,,,0,4,4,4,4,4,4,4,4,4,4,4,4,4,4,100,,,,,,,,,,,,,,,,,7,0,0.581015,0.350891,-0.626587,0.382996,1.005386,-0.050782,-0.019532,-25.271992,-96.003662,1.644923
1648680182,1648680182,29,0,4288.717773,4274.230957,4271.538574,4300.769043,4298.205078,4300.512695,4269.743652,4328.205078,4330.769043,4305.256348,4286.794922,4239.230957,4164.871582,4303.461426,0,3,73,,,,0,4,4,4,4,4,4,4,4,4,4,4,4,4,4,100,0.976563,25,3,4,3,3,1,3,4,3,3,1,4,4,1,3,,,,,,,,,,,,
1648680182,1648680182,30,0,4298.974121,4277.94873,4279.102539,4297.179688,4309.358887,4309.487305,4276.025879,4335.512695,4338.461426,4306.794922,4296.282227,4254.102539,4184.358887,4320.641113,0,3,73,,,,0,4,4,4,4,4,4,4,4,4,4,4,4,4,4,100,,,,,,,,,,,,,,,,,,,,,,,,,,,,
1648680182,1648680182,31,0,4308.717773,4280.128418,4290.641113,4300.384766,4310.256348,4308.974121,4274.871582,4339.102539,4349.615234,4308.333496,4298.717773,4263.077148,4181.538574,4330.128418,0,3,73,,,,0,4,4,4,4,4,4,4,4,4,4,4,4,4,4,100,,,,,,,,,,,,,,,,,,,,,,,,,,,,
1648680182,1648680182,32,0,4294.871582,4276.282227,4279.871582,4296.282227,4294.102539,4291.794922,4261.282227,4319.871582,4334.487305,4301.794922,4280.641113,4244.615234,4150.641113,4309.487305,0,3,73,,,,0,4,4,4,4,4,4,4,4,4,4,4,4,4,4,100,,,,,,,,,,,,,,,,,8,0,0.58117,0.350525,-0.626648,0.382996,1.015152,-0.052247,-0.017578,-24.075686,-93.76059,1.196307
1648680182,1648680182,33,0,4296.794922,4280.384766,4281.794922,4300.897461,4299.615234,4298.846191,4266.282227,4320.897461,4334.230957,4307.05127,4279.743652,4244.871582,4161.410156,4310.256348,0,3,73,,,,0,4,4,4,4,4,4,4,4,4,4,4,4,4,4,100,,,,,,,,,,,,,,,,,,,,,,,,,,,,
1648680182,1648680182,34,0,4301.025879,4270.641113,4283.589844,4296.538574,4303.333496,4304.102539,4265.897461,4324.743652,4340.769043,4303.717773,4281.794922,4250.384766,4189.487305,4315.769043,0,3,73,,,,0,4,4,4,4,4,4,4,4,4,4,4,4,4,4,100,,,,,,,,,,,,,,,,,,,,,,,,,,,,
1648680182,1648680182,35,0,4298.974121,4265.512695,4280.384766,4295.897461,4302.05127,4300.897461,4262.94873,4326.282227,4341.025879,4303.077148,4288.333496,4252.820313,4187.05127,4317.563965,0,3,73,,,,0,4,4,4,4,4,4,4,4,4,4,4,4,4,4,100,,,,,,,,,,,,,,,,,,,,,,,,,,,,
1648680182,1648680182,36,0,4285.641113,4265.256348,4270.769043,4289.743652,4289.743652,4290.256348,4258.333496,4322.94873,4332.307617,4300.512695,4286.410156,4246.153809,4158.077148,4313.077148,0,3,73,,,,0,4,4,4,4,4,4,4,4,4,4,4,4,4,4,100,,,,,,,,,,,,,,,,,9,0,0.581289,0.349915,-0.626953,0.382874,1.012223,-0.05127,-0.023438,-23.627069,-94.508278,2.243076
1648680182,1648680182,37,0,4290,4276.153809,4279.230957,4295.384766,4293.461426,4300.512695,4270.897461,4333.974121,4342.94873,4308.333496,4290.897461,4250.512695,4157.563965,4314.743652,0,3,73,,,,0,4,4,4,4,4,4,4,4,4,4,4,4,4,4,100,,,,,,,,,,,,,,,,,,,,,,,,,,,,
1648680182,1648680182,38,0,4291.922852,4277.307617,4277.94873,4295,4295.384766,4305.128418,4272.94873,4332.05127,4346.538574,4311.153809,4287.820313,4245.641113,4156.666504,4307.820313,0,3,73,,,,0,4,4,4,4,4,4,4,4,4,4,4,4,4,4,100,,,,,,,,,,,,,,,,,,,,,,,,,,,,
1648680182,1648680182,39,0,4287.307617,4273.077148,4268.717773,4288.077148,4289.487305,4300.512695,4266.153809,4319.743652,4338.589844,4307.307617,4282.436035,4240.769043,4152.307617,4305.128418,0,3,73,,,,0,4,4,4,4,4,4,4,4,4,4,4,4,4,4,100,,,,,,,,,,,,,,,,,,,,,,,,,,,,
1648680182,1648680182,40,0,4280.769043,4265,4265.256348,4282.436035,4282.05127,4293.461426,4259.743652,4317.563965,4333.846191,4301.025879,4280.512695,4242.94873,4157.94873,4305.256348,0,3,73,,,,0,4,4,4,4,4,4,4,4,4,4,4,4,4,4,100,,,,,,,,,,,,,,,,,10,0,0.58129,0.349609,-0.627197,0.382751,1.006851,-0.045899,-0.030274,-23.477531,-93.910126,1.345846
1648680182,1648680182,41,0,4278.077148,4265.512695,4266.666504,4284.102539,4284.487305,4293.846191,4260.641113,4320.897461,4333.717773,4296.794922,4278.333496,4241.025879,4166.025879,4302.820313,0,3,73,,,,0,4,4,4,4,4,4,4,4,4,4,4,4,4,4,100,,,,,,,,,,,,,,,,,,,,,,,,,,,,
1648680182,1648680182,42,0,4283.205078,4270.641113,4268.461426,4289.743652,4289.615234,4297.179688,4262.436035,4316.282227,4330.256348,4297.436035,4278.461426,4238.974121,4163.974121,4302.307617,0,3,73,,,,0,4,4,4,4,4,4,4,4,4,4,4,4,4,4,100,,,,,,,,,,,,,,,,,,,,,,,,,,,,
1648680182,1648680182,43,0,4278.717773,4266.282227,4262.05127,4285.641113,4281.410156,4288.717773,4253.974121,4305,4322.179688,4292.563965,4275.384766,4237.05127,4139.487305,4296.282227,0,3,73,,,,0,4,4,4,4,4,4,4,4,4,4,4,4,4,4,100,,,,,,,,,,,,,,,,,,,,,,,,,,,,
1648680182,1648680182,44,0,4273.205078,4264.102539,4259.615234,4282.94873,4279.487305,4286.153809,4250.512695,4309.102539,4325.897461,4294.102539,4271.538574,4235.769043,4135.641113,4297.05127,0,3,73,,,,0,4,4,4,4,4,4,4,4,4,4,4,4,4,4,100,,,,,,,,,,,,,,,,,11,0,0.581143,0.349854,-0.627197,0.382751,1.013199,-0.041016,-0.022461,-23.627069,-94.508278,1.644923
1648680182,1648680182,45,0,4264.871582,4258.205078,4250.897461,4270.384766,4274.230957,4279.743652,4243.717773,4303.589844,4317.436035,4286.538574,4254.615234,4220.769043,4146.153809,4291.410156,0,3,73,,,,0,4,4,4,4,4,4,4,4,4,4,4,4,4,4,100,,,,,,,,,,,,,,,,,,,,,,,,,,,,
1648680182,1648680182,46,0,4267.179688,4259.871582,4255.384766,4271.282227,4273.717773,4279.487305,4245.641113,4302.94873,4313.461426,4284.615234,4258.077148,4223.589844,4149.102539,4292.94873,0,3,73,,,,0,4,4,4,4,4,4,4,4,4,4,4,4,4,4,100,,,,,,,,,,,,,,,,,,,,,,,,,,,,
1648680182,1648680182,47,0,4267.307617,4263.589844,4261.794922,4278.846191,4273.461426,4279.743652,4248.333496,4302.563965,4309.487305,4280.769043,4265.769043,4230,4131.025879,4294.102539,0,3,73,,,,0,4,4,4,4,4,4,4,4,4,4,4,4,4,4,100,,,,,,,,,,,,,,,,,,,,,,,,,,,,
1648680182,1648680182,48,0,4271.538574,4263.846191,4264.230957,4283.205078,4279.358887,4286.282227,4253.717773,4303.974121,4311.794922,4280.256348,4263.077148,4231.410156,4130.512695,4294.743652,0,3,73,,,,0,4,4,4,4,4,4,4,4,4,4,4,4,4,4,100,,,,,,,,,,,,,,,,,12,0,0.581145,0.350464,-0.626892,0.38269,1.023453,-0.052735,-0.034668,-25.122454,-95.10643,1.794461
1648680182,1648680182,49,0,4260,4245.897461,4247.563965,4264.615234,4264.871582,4274.102539,4243.974121,4292.05127,4300.769043,4266.922852,4245.641113,4216.282227,4131.025879,4280.512695,0,3,73,,,,0,4,4,4,4,4,4,4,4,4,4,4,4,4,4,100,,,,,,,,,,,,,,,,,,,,,,,,,,,,
1648680182,1648680182,50,0,4259.615234,4252.563965,4247.307617,4263.461426,4262.563965,4275,4246.922852,4292.179688,4299.615234,4271.794922,4250.641113,4217.436035,4131.922852,4283.589844,0,3,73,,,,0,4,4,4,4,4,4,4,4,4,4,4,4,4,4,100,,,,,,,,,,,,,,,,,,,,,,,,,,,,
1648680182,1648680182,51,0,4259.230957,4260.769043,4248.077148,4265.897461,4263.846191,4277.820313,4244.615234,4291.410156,4295.641113,4275.512695,4252.05127,4218.077148,4127.436035,4280.384766,0,3,73,,,,0,4,4,4,4,4,4,4,4,4,4,4,4,4,4,100,,,,,,,,,,,,,,,,,,,,,,,,,,,,
1648680182,1648680182,52,0,4262.563965,4256.794922,4249.487305,4267.94873,4269.743652,4283.077148,4245.512695,4297.179688,4301.794922,4279.230957,4256.153809,4223.077148,4130.512695,4282.179688,0,3,73,,,,0,4,4,4,4,4,4,4,4,4,4,4,4,4,4,100,,,,,,,,,,,,,,,,,13,0,0.581124,0.351135,-0.626648,0.382507,1.005386,-0.058106,-0.020996,-24.075686,-96.003662,2.691691
1648680182,1648680182,53,0,4262.820313,4248.077148,4245.641113,4265.769043,4266.666504,4280.128418,4242.94873,4293.077148,4301.666504,4273.846191,4257.05127,4223.461426,4117.563965,4286.538574,0,3,73,,,,0,4,4,4,4,4,4,4,4,4,4,4,4,4,4,100,,,,,,,,,,,,,,,,,,,,,,,,,,,,
1648680182,1648680182,54,0,4264.743652,4255.256348,4244.871582,4267.94873,4262.563965,4276.153809,4235.641113,4283.333496,4292.05127,4263.461426,4252.179688,4222.436035,4112.436035,4284.358887,0,3,73,,,,0,4,4,4,4,4,4,4,4,4,4,4,4,4,4,100,,,,,,,,,,,,,,,,,,,,,,,,,,,,
1648680182,1648680182,55,0,4257.94873,4255.384766,4243.717773,4264.871582,4259.358887,4272.307617,4231.282227,4283.333496,4289.871582,4262.94873,4246.410156,4217.563965,4125.512695,4276.282227,0,3,73,,,,0,4,4,4,4,4,4,4,4,4,4,4,4,4,4,100,,,,,,,,,,,,,,,,,,,,,,,,,,,,
1648680182,1648680182,56,0,4255.512695,4254.102539,4246.666504,4264.230957,4264.230957,4276.922852,4241.922852,4290.128418,4296.025879,4271.794922,4252.05127,4215.256348,4131.153809,4278.974121,0,3,73,,,,0,4,4,4,4,4,4,4,4,4,4,4,4,4,4,100,,,,,,,,,,,,,,,,,14,0,0.581035,0.351807,-0.626465,0.382324,1.014176,-0.066407,-0.013672,-25.122454,-95.40551,1.794461
1648680182,1648680182,57,0,4257.94873,4257.05127,4244.615234,4264.230957,4265.641113,4277.563965,4240.641113,4284.487305,4287.05127,4268.974121,4248.461426,4213.846191,4120.512695,4278.846191,0,3,73,,,,0,4,4,4,4,4,4,4,4,4,4,4,4,4,4,100,,,,,,,,,,,,,,,,,,,,,,,,,,,,
1648680182,1648680182,58,0,4256.538574,4255.769043,4242.307617,4264.230957,4261.794922,4273.077148,4234.358887,4276.666504,4276.025879,4261.025879,4238.589844,4211.153809,4117.692383,4276.153809,0,3,73,,,,0,4,4,4,4,4,4,4,4,4,4,4,4,4,4,100,,,,,,,,,,,,,,,,,,,,,,,,,,,,
1648680182,1648680182,59,0,4257.563965,4253.589844,4249.743652,4267.307617,4267.692383,4276.922852,4243.333496,4286.282227,4287.179688,4265.641113,4246.922852,4216.922852,4116.153809,4283.333496,0,3,73,,,,0,4,4,4,4,4,4,4,4,4,4,4,4,4,4,100,,,,,,,,,,,,,,,,,,,,,,,,,,,,
1648680182,1648680182,60,0,4254.358887,4250,4245.641113,4258.589844,4266.025879,4274.615234,4240.769043,4281.666504,4286.794922,4255.897461,4245.897461,4213.974121,4098.333496,4276.538574,0,3,73,,,,0,4,4,4,4,4,4,4,4,4,4,4,4,4,4,100,,,,,,,,,,,,,,,,,15,0,0.581027,0.351868,-0.626587,0.38208,1.013199,-0.055177,-0.032227,-25.42153,-95.40551,1.046769
1648680182,1648680182,61,0,4259.871582,4251.794922,4246.282227,4261.153809,4268.717773,4282.05127,4239.487305,4280.256348,4284.487305,4257.307617,4244.102539,4217.820313,4115.897461,4277.94873,0,3,73,,,,0,4,4,4,4,4,4,4,4,4,4,4,4,4,4,100,,,,,,,,,,,,,,,,,,,,,,,,,,,,
1648680182,1648680182,62,0,4255.769043,4249.743652,4243.205078,4262.307617,4267.179688,4284.871582,4242.179688,4285.128418,4283.077148,4261.538574,4241.666504,4216.794922,4120.769043,4277.820313,0,3,73,,,,0,4,4,4,4,4,4,4,4,4,4,4,4,4,4,100,,,,,,,,,,,,,,,,,,,,,,,,,,,,
1648680182,1648680182,63,0,4259.487305,4258.846191,4247.179688,4265.512695,4268.974121,4281.410156,4244.230957,4292.692383,4287.820313,4265.128418,4250.512695,4218.205078,4090.769287,4278.974121,0,3,73,,,,0,4,4,4,4,4,4,4,4,4,4,4,4,4,4,100,,,,,,,,,,,,,,,,,,,,,,,,,,,,
1648680182,1648680182,64,0,4262.94873,4262.94873,4247.563965,4262.307617,4264.230957,4274.743652,4238.461426,4283.717773,4283.333496,4265.897461,4246.410156,4216.282227,4088.846191,4278.717773,3601,3,73,,,,0,4,4,4,4,4,4,4,4,4,4,4,4,4,4,100,,,,,,,,,,,,,,,,,16,0,0.581451,0.351807,-0.626526,0.381592,1.010758,-0.055665,-0.018555,-25.870146,-94.657814,2.84123
1648680182,1648680182,65,0,4267.179688,4264.487305,4254.358887,4267.692383,4270.384766,4284.871582,4245.512695,4285.512695,4286.538574,4275.512695,4240.256348,4222.692383,4142.563965,4288.717773,3575,3,73,,,,0,4,4,4,4,4,4,4,4,4,4,4,4,4,4,100,,,,,,,,,,,,,,,,,,,,,,,,,,,,
1648680182,1648680182,66,0,4258.077148,4255.384766,4244.102539,4257.05127,4263.717773,4273.333496,4236.153809,4276.922852,4274.358887,4259.871582,4230.897461,4214.871582,4140.641113,4277.563965,3581,3,73,,,,0,4,4,4,4,4,4,4,4,4,4,4,4,4,4,100,,,,,,,,,,,,,,,,,,,,,,,,,,,,
1648680182,1648680182,67,0,4262.179688,4253.077148,4242.436035,4254.102539,4256.666504,4262.436035,4230.384766,4271.922852,4269.102539,4253.077148,4238.077148,4217.820313,4107.436035,4275.897461,3067,3,73,,,,0,4,4,4,4,4,4,4,4,4,4,4,4,4,4,100,,,,,,,,,,,,,,,,,,,,,,,,,,,,
1648680182,1648680182,68,0,4260.769043,4248.717773,4242.563965,4253.077148,4248.333496,4256.794922,4225.512695,4267.05127,4267.307617,4255,4236.282227,4219.615234,4108.974121,4280.128418,3615,3,73,,,,0,4,4,4,4,4,4,4,4,4,4,4,4,4,4,100,,,,,,,,,,,,,,,,,17,0,0.581582,0.351746,-0.626587,0.381348,1.012711,-0.040528,-0.029297,-24.5243,-93.76059,2.243076
1648680182,1648680182,69,0,4266.922852,4261.025879,4250,4262.820313,4257.94873,4263.974121,4228.846191,4272.307617,4270.128418,4257.94873,4235,4219.102539,4132.563965,4286.410156,3591,3,73,,,,0,4,4,4,4,4,4,4,4,4,4,4,4,4,4,100,,,,,,,,,,,,,,,,,,,,,,,,,,,,
1648680182,1648680182,70,0,4278.717773,4270.512695,4253.974121,4272.563965,4267.563965,4269.358887,4233.205078,4276.794922,4275,4261.666504,4241.538574,4220.256348,4135.641113,4286.666504,3372,3,73,,,,0,4,4,4,4,4,4,4,4,4,4,4,4,4,4,100,,,,,,,,,,,,,,,,,,,,,,,,,,,,
1648680182,1648680182,71,0,4282.563965,4268.461426,4254.487305,4273.974121,4266.538574,4272.179688,4235.512695,4277.563965,4280.897461,4269.230957,4255.897461,4229.615234,4129.743652,4289.358887,3583,3,73,,,,0,4,4,4,4,4,4,4,4,4,4,4,4,4,4,100,,,,,,,,,,,,,,,,,,,,,,,,,,,,
1648680182,1648680182,72,0,4277.94873,4267.820313,4257.820313,4272.05127,4263.205078,4269.358887,4230.769043,4276.922852,4284.615234,4267.692383,4268.077148,4234.871582,4116.410156,4295.128418,3577,3,73,,,,0,4,4,4,4,4,4,4,4,4,4,4,4,4,4,100,,,,,,,,,,,,,,,,,18,0,0.581918,0.351501,-0.626709,0.380859,0.999039,-0.034668,-0.034668,-25.57107,-95.255974,2.243076
1648680182,1648680182,73,0,4274.358887,4267.307617,4257.692383,4267.820313,4261.282227,4265.769043,4229.871582,4277.307617,4282.820313,4261.410156,4268.461426,4232.563965,4115.128418,4295.384766,3607,3,73,,,,0,4,4,4,4,4,4,4,4,4,4,4,4,4,4,100,,,,,,,,,,,,,,,,,,,,,,,,,,,,
1648680182,1648680182,74,0,4273.461426,4259.871582,4252.05127,4263.974121,4257.179688,4266.153809,4231.410156,4277.94873,4278.846191,4265.769043,4258.846191,4228.461426,4137.307617,4293.333496,3612,3,73,,,,0,4,4,4,4,4,4,4,4,4,4,4,4,4,4,100,,,,,,,,,,,,,,,,,,,,,,,,,,,,
1648680182,1648680182,75,0,4276.538574,4261.794922,4251.153809,4267.820313,4256.025879,4264.102539,4233.717773,4278.077148,4276.922852,4269.358887,4253.846191,4225.897461,4142.820313,4293.589844,3606,3,73,,,,0,4,4,4,4,4,4,4,4,4,4,4,4,4,4,100,,,,,,,,,,,,,,,,,,,,,,,,,,,,
1648680182,1648680182,76,0,4289.230957,4272.820313,4264.358887,4281.153809,4268.717773,4274.743652,4248.333496,4292.692383,4290.769043,4281.410156,4275.897461,4244.358887,4135.384766,4306.282227,3617,3,73,,,,0,4,4,4,4,4,4,4,4,4,4,4,4,4,4,100,,,,,,,,,,,,,,,,,19,0,0.582175,0.351013,-0.626892,0.380615,1.016129,-0.037598,-0.01416,-24.673838,-95.854126,2.093538
1648680182,1648680182,77,0,4275.897461,4261.922852,4255.384766,4269.615234,4263.461426,4273.974121,4246.025879,4285.897461,4284.487305,4276.025879,4271.025879,4242.05127,4132.307617,4298.333496,3614,3,73,,,,0,4,4,4,4,4,4,4,4,4,4,4,4,4,4,100,,,,,,,,,,,,,,,,,,,,,,,,,,,,
1648680182,1648680182,78,0,4273.077148,4263.205078,4255.256348,4269.358887,4265.384766,4281.538574,4253.717773,4283.846191,4282.436035,4270.897461,4261.153809,4234.358887,4133.205078,4294.871582,3612,3,73,,,,0,4,4,4,4,4,4,4,4,4,4,4,4,4,4,100,,,,,,,,,,,,,,,,,,,,,,,,,,,,
1648680182,1648680182,79,0,4284.102539,4270.128418,4263.077148,4277.436035,4275.897461,4292.94873,4267.05127,4295.897461,4289.230957,4270.256348,4277.563965,4239.102539,4106.794922,4302.307617,3606,3,73,,,,0,4,4,4,4,4,4,4,4,4,4,4,4,4,4,100,,,,,,,,,,,,,,,,,,,,,,,,,,,,
1648680182,1648680182,80,0,4287.307617,4264.102539,4264.102539,4277.436035,4280.769043,4297.820313,4267.307617,4306.153809,4293.974121,4279.615234,4286.025879,4247.94873,4112.94873,4307.692383,3617,3,73,,,,0,4,4,4,4,4,4,4,4,4,4,4,4,4,4,100,,,,,,,,,,,,,,,,,20,0,0.582177,0.350769,-0.626953,0.380737,1.00441,-0.050782,-0.039551,-24.673838,-93.611046,2.093538
1648680182,1648680182,81,0,4270,4250.128418,4249.871582,4262.563965,4261.666504,4280.769043,4248.333496,4292.94873,4284.743652,4277.820313,4247.436035,4230.641113,4149.358887,4291.922852,3614,3,73,,,,0,4,4,4,4,4,4,4,4,4,4,4,4,4,4,100,,,,,,,,,,,,,,,,,,,,,,,,,,,,
1648680182,1648680182,82,0,4281.153809,4262.436035,4259.230957,4271.922852,4262.436035,4277.436035,4254.743652,4296.794922,4295.128418,4281.666504,4248.077148,4237.05127,4179.487305,4301.922852,3612,3,73,,,,0,4,4,4,4,4,4,4,4,4,4,4,4,4,4,100,,,,,,,,,,,,,,,,,,,,,,,,,,,,
1648680182,1648680182,83,0,4292.179688,4265.512695,4267.05127,4274.743652,4264.487305,4276.922852,4255.256348,4297.563965,4295.256348,4279.230957,4277.179688,4250.384766,4166.538574,4313.461426,3606,3,73,,,,0,4,4,4,4,4,4,4,4,4,4,4,4,4,4,100,,,,,,,,,,,,,,,,,,,,,,,,,,,,
1648680182,1648680182,84,0,4292.692383,4269.615234,4271.282227,4273.205078,4264.487305,4277.692383,4249.743652,4291.282227,4288.974121,4280.769043,4287.563965,4252.692383,4151.410156,4313.974121,3617,3,73,,,,0,4,4,4,4,4,4,4,4,4,4,4,4,4,4,100,,,,,,,,,,,,,,,,,21,0,0.582185,0.350647,-0.627014,0.380737,0.999527,-0.049317,-0.018067,-25.42153,-95.10643,2.84123
1648680182,1648680182,85,0,4295.641113,4276.922852,4272.307617,4276.794922,4262.563965,4274.743652,4248.205078,4287.307617,4284.358887,4278.461426,4284.487305,4253.461426,4157.820313,4317.307617,3614,3,73,,,,0,4,4,4,4,4,4,4,4,4,4,4,4,4,4,100,,,,,,,,,,,,,,,,,,,,,,,,,,,,
1648680182,1648680182,86,0,4315.512695,4289.230957,4281.410156,4290.512695,4271.410156,4282.820313,4255.769043,4291.025879,4284.871582,4274.743652,4292.820313,4266.922852,4185.384766,4334.487305,3612,3,73,,,,0,4,4,4,4,4,4,4,4,4,4,4,4,4,4,100,,,,,,,,,,,,,,,,,,,,,,,,,,,,
1648680182,1648680182,87,0,4332.692383,4299.743652,4294.487305,4298.717773,4280.128418,4291.025879,4261.025879,4292.820313,4289.102539,4280.512695,4309.487305,4280.641113,4191.922852,4349.230957,3606,3,73,,,,0,4,4,4,4,4,4,4,4,4,4,4,4,4,4,100,,,,,,,,,,,,,,,,,,,,,,,,,,,,
1648680182,1648680182,88,0,4338.333496,4304.102539,4300.384766,4300.897461,4280.384766,4291.666504,4264.102539,4297.820313,4297.436035,4297.307617,4324.615234,4288.717773,4193.333496,4361.153809,3617,3,73,,,,0,4,4,4,4,4,4,4,4,4,4,4,4,4,4,100,,,,,,,,,,,,,,,,,22,0,0.581995,0.35083,-0.627014,0.380859,1.005875,-0.050782,-0.027832,-23.327993,-95.255974,3.73846
1648680182,1648680182,89,0,4338.717773,4301.282227,4294.615234,4303.461426,4272.436035,4287.692383,4261.666504,4300.384766,4295.769043,4298.846191,4325.256348,4286.794922,4211.282227,4365.897461,3614,3,73,,,,0,4,4,4,4,4,4,4,4,4,4,4,4,4,4,100,,,,,,,,,,,,,,,,,,,,,,,,,,,,
1648680182,1648680182,90,0,4338.461426,4299.102539,4287.436035,4302.94873,4264.743652,4282.692383,4254.230957,4285.897461,4277.563965,4280.384766,4322.692383,4278.589844,4196.410156,4359.871582,3612,3,73,,,,0,4,4,4,4,4,4,4,4,4,4,4,4,4,4,100,,,,,,,,,,,,,,,,,,,,,,,,,,,,
1648680182,1648680182,91,0,4344.230957,4301.538574,4294.230957,4308.333496,4270,4281.666504,4253.846191,4283.333496,4273.461426,4275.641113,4319.743652,4282.05127,4201.922852,4363.717773,3606,3,73,,,,0,4,4,4,4,4,4,4,4,4,4,4,4,4,4,100,,,,,,,,,,,,,,,,,,,,,,,,,,,,
1648680182,1648680182,92,0,4332.307617,4287.436035,4286.666504,4300,4268.333496,4271.538574,4250,4281.666504,4268.846191,4265.897461,4281.794922,4270.128418,4237.05127,4350,3617,3,73,,,,0,4,4,4,4,4,4,4,4,4,4,4,4,4,4,100,,,,,,,,,,,,,,,,,23,0,0.581908,0.351257,-0.626892,0.380798,1.011734,-0.056641,-0.045899,-22.131685,-94.807358,2.691691
1648680182,1648680182,93,0,4326.666504,4281.153809,4283.717773,4293.589844,4273.077148,4275.641113,4252.94873,4281.153809,4270.128418,4265,4282.05127,4268.077148,4225.384766,4344.487305,3614,3,73,,,,0,4,4,4,4,4,4,4,4,4,4,4,4,4,4,100,0.976563,41.666668,3,4,3,4,1,3,4,3,4,3,4,3,1,3,,,,,,,,,,,,
1648680182,1648680182,94,0,4328.846191,4287.179688,4286.153809,4294.230957,4278.846191,4285.897461,4256.282227,4280,4273.974121,4268.077148,4310,4277.692383,4190,4354.871582,3612,3,73,,,,0,4,4,4,4,4,4,4,4,4,4,4,4,4,4,100,,,,,,,,,,,,,,,,,,,,,,,,,,,,
1648680182,1648680182,95,0,4322.179688,4288.077148,4282.692383,4298.974121,4279.230957,4289.487305,4257.820313,4287.307617,4279.102539,4268.717773,4294.102539,4273.205078,4203.077148,4342.563965,3606,3,73,,,,0,4,4,4,4,4,4,4,4,4,4,4,4,4,4,100,,,,,,,,,,,,,,,,,,,,,,,,,,,,
1648680182,1648680182,96,0,4296.922852,4270,4264.102539,4282.436035,4259.743652,4271.794922,4242.692383,4273.205078,4259.615234,4251.538574,4264.743652,4244.743652,4163.974121,4302.820313,3617,3,73,,,,0,4,4,4,4,4,4,4,4,4,4,4,4,4,4,100,,,,,,,,,,,,,,,,,24,0,0.582001,0.351563,-0.626709,0.380676,1.010269,-0.069337,-0.032227,-24.5243,-94.807358,2.243076
1648680182,1648680182,97,0,4305.128418,4263.717773,4275.128418,4282.05127,4265.641113,4279.615234,4248.461426,4274.102539,4261.538574,4258.846191,4283.205078,4253.077148,4132.436035,4317.692383,3614,3,73,,,,0,4,4,4,4,4,4,4,4,4,4,4,4,4,4,100,,,,,,,,,,,,,,,,,,,,,,,,,,,,
1648680182,1648680182,98,0,4312.179688,4265.769043,4281.922852,4284.487305,4277.436035,4289.102539,4256.025879,4286.153809,4274.487305,4267.563965,4284.358887,4263.333496,4160.256348,4333.333496,3612,3,73,,,,0,4,4,4,4,4,4,4,4,4,4,4,4,4,4,100,,,,,,,,,,,,,,,,,,,,,,,,,,,,
1648680182,1648680182,99,0,4303.717773,4275.897461,4273.974121,4285.384766,4278.077148,4284.358887,4253.974121,4285.128418,4274.358887,4265.384766,4273.974121,4256.153809,4158.077148,4315,3606,3,73,,,,0,4,4,4,4,4,4,4,4,4,4,4,4,4,4,100,,,,,,,,,,,,,,,,,,,,,,,,,,,,
1648680182,1648680182,100,0,4286.922852,4262.94873,4263.077148,4277.820313,4265.769043,4272.94873,4244.615234,4267.692383,4258.717773,4252.692383,4252.692383,4238.205078,4136.922852,4297.05127,3617,3,73,,,,0,4,4,4,4,4,4,4,4,4,4,4,4,4,4,100,,,,,,,,,,,,,,,,,25,0,0.582135,0.351624,-0.626587,0.380615,1.009293,-0.048829,-0.016114,-24.823378,-94.508278,2.243076
1648680182,1648680182,101,0,4283.846191,4249.102539,4264.615234,4273.205078,4271.922852,4285.512695,4255.769043,4276.538574,4261.922852,4251.794922,4236.282227,4238.846191,4154.871582,4301.794922,3614,3,73,,,,0,4,4,4,4,4,4,4,4,4,4,4,4,4,4,100,,,,,,,,,,,,,,,,,,,,,,,,,,,,
1648680182,1648680182,102,0,4280,4247.563965,4262.436035,4265.384766,4280.256348,4294.102539,4263.461426,4290.128418,4269.102539,4260.897461,4249.102539,4244.230957,4135.128418,4296.922852,3612,3,73,,,,0,4,4,4,4,4,4,4,4,4,4,4,4,4,4,100,,,,,,,,,,,,,,,,,,,,,,,,,,,,
1648680182,1648680182,103,0,4280,4258.974121,4263.589844,4269.871582,4280.128418,4292.436035,4261.922852,4288.717773,4269.615234,4264.358887,4267.179688,4242.179688,4105.897461,4292.94873,3606,3,73,,,,0,4,4,4,4,4,4,4,4,4,4,4,4,4,4,100,,,,,,,,,,,,,,,,,,,,,,,,,,,,
1648680182,1648680182,104,0,4285,4263.589844,4268.077148,4283.717773,4280.256348,4295.897461,4267.307617,4290.256348,4275.897461,4258.333496,4255.128418,4236.666504,4120.641113,4293.077148,3617,3,73,,,,0,4,4,4,4,4,4,4,4,4,4,4,4,4,4,100,,,,,,,,,,,,,,,,,26,0,0.582363,0.351379,-0.626587,0.380493,1.025895,-0.053712,-0.023926,-25.271992,-94.508278,2.243076
1648680182,1648680182,105,0,4283.589844,4254.871582,4266.153809,4280.641113,4281.794922,4299.487305,4273.333496,4292.94873,4276.025879,4258.846191,4246.922852,4233.974121,4114.871582,4287.563965,3614,3,73,,,,0,4,4,4,4,4,4,4,4,4,4,4,4,4,4,100,,,,,,,,,,,,,,,,,,,,,,,,,,,,
1648680182,1648680182,106,0,4277.307617,4242.820313,4261.410156,4269.102539,4280.897461,4296.153809,4268.846191,4288.205078,4268.333496,4267.179688,4255.384766,4236.922852,4095.128174,4288.205078,3612,3,73,,,,0,4,4,4,4,4,4,4,4,4,4,4,4,4,4,100,,,,,,,,,,,,,,,,,,,,,,,,,,,,
1648680182,1648680182,107,0,4265.512695,4243.461426,4253.333496,4259.871582,4271.025879,4285,4261.282227,4278.717773,4261.666504,4258.333496,4247.307617,4228.717773,4088.718018,4279.871582,3606,3,73,,,,0,4,4,4,4,4,4,4,4,4,4,4,4,4,4,100,,,,,,,,,,,,,,,,,,,,,,,,,,,,
1648680182,1648680182,108,0,4271.282227,4260.128418,4262.563965,4270.512695,4276.538574,4291.410156,4269.615234,4286.922852,4274.871582,4259.743652,4250.256348,4232.179688,4087.179443,4277.436035,3617,3,73,,,,0,4,4,4,4,4,4,4,4,4,4,4,4,4,4,100,,,,,,,,,,,,,,,,,27,0,0.582704,0.351318,-0.626526,0.380127,0.989761,-0.057618,-0.015625,-24.075686,-94.508278,1.943999
1648680182,1648680182,109,0,4267.05127,4248.205078,4259.230957,4269.358887,4276.410156,4288.077148,4264.358887,4282.05127,4271.025879,4258.717773,4242.179688,4229.358887,4086.410156,4271.538574,3614,3,73,,,,0,4,4,4,4,4,4,4,4,4,4,4,4,4,4,100,,,,,,,,,,,,,,,,,,,,,,,,,,,,
1648680182,1648680182,110,0,4266.282227,4240.769043,4259.358887,4267.307617,4278.717773,4288.846191,4265.769043,4284.487305,4270.512695,4257.820313,4237.692383,4230.897461,4097.307617,4277.436035,3612,3,73,,,,0,4,4,4,4,4,4,4,4,4,4,4,4,4,4,100,,,,,,,,,,,,,,,,,,,,,,,,,,,,
1648680182,1648680182,111,0,4269.230957,4249.102539,4261.282227,4263.717773,4276.282227,4292.563965,4271.922852,4291.538574,4277.563965,4253.974121,4243.205078,4234.615234,4085.897461,4280.512695,3606,3,73,,,,0,4,4,4,4,4,4,4,4,4,4,4,4,4,4,100,,,,,,,,,,,,,,,,,,,,,,,,,,,,
1648680182,1648680182,112,0,4273.717773,4257.179688,4264.230957,4267.820313,4278.205078,4298.205078,4274.230957,4296.025879,4283.974121,4261.025879,4253.461426,4240.769043,4069.230713,4280.641113,3617,3,73,,,,0,4,4,4,4,4,4,4,4,4,4,4,4,4,4,100,,,,,,,,,,,,,,,,,28,0,0.583136,0.351196,-0.626526,0.379578,1.006851,-0.044923,-0.023438,-23.926146,-95.40551,2.093538
1648680182,1648680182,113,0,4261.666504,4247.563965,4253.461426,4263.974121,4268.589844,4284.102539,4261.025879,4278.077148,4269.230957,4253.589844,4235.769043,4224.871582,4055.769287,4268.077148,3614,3,73,,,,0,4,4,4,4,4,4,4,4,4,4,4,4,4,4,100,,,,,,,,,,,,,,,,,,,,,,,,,,,,
1648680182,1648680182,114,0,4264.743652,4248.461426,4257.820313,4269.102539,4275.384766,4289.358887,4267.436035,4278.205078,4266.922852,4254.102539,4229.102539,4220.769043,4075,4270.512695,3612,3,73,,,,0,4,4,4,4,4,4,4,4,4,4,4,4,4,4,100,,,,,,,,,,,,,,,,,,,,,,,,,,,,
1648680182,1648680182,115,0,4261.282227,4242.436035,4252.94873,4263.974121,4278.846191,4299.358887,4269.102539,4286.282227,4265.897461,4249.743652,4231.153809,4220.897461,4078.846191,4265.641113,3606,3,73,,,,0,4,4,4,4,4,4,4,4,4,4,4,4,4,4,100,,,,,,,,,,,,,,,,,,,,,,,,,,,,
1648680182,1648680182,116,0,4250.256348,4240.769043,4241.922852,4256.666504,4274.487305,4295.641113,4266.025879,4287.05127,4267.692383,4248.589844,4233.077148,4218.846191,4061.410156,4257.436035,3617,3,73,,,,0,4,4,4,4,4,4,4,4,4,4,4,4,4,4,100,,,,,,,,,,,,,,,,,29,0,0.583574,0.350952,-0.626587,0.379028,1.016129,-0.048341,-0.025391,-23.926146,-95.10643,1.794461
1648680182,1648680182,117,0,4246.282227,4245,4240.128418,4256.025879,4264.743652,4282.94873,4261.922852,4277.179688,4267.692383,4249.615234,4227.307617,4213.461426,4057.179443,4255.897461,3614,3,73,,,,0,4,4,4,4,4,4,4,4,4,4,4,4,4,4,100,,,,,,,,,,,,,,,,,,,,,,,,,,,,
1648680182,1648680182,118,0,4256.282227,4243.077148,4246.153809,4259.871582,4262.820313,4285.384766,4263.974121,4277.820313,4265.128418,4248.077148,4223.589844,4215.769043,4070.897461,4262.05127,3612,3,73,,,,0,4,4,4,4,4,4,4,4,4,4,4,4,4,4,100,,,,,,,,,,,,,,,,,,,,,,,,,,,,
1648680182,1648680182,119,0,4260.128418,4240.769043,4248.333496,4257.692383,4266.153809,4290,4267.94873,4292.436035,4270.897461,4252.820313,4228.077148,4222.179688,4075.512939,4267.436035,3606,3,73,,,,0,4,4,4,4,4,4,4,4,4,4,4,4,4,4,100,,,,,,,,,,,,,,,,,,,,,,,,,,,,
1648680182,1648680182,120,0,4257.563965,4248.846191,4250.897461,4256.538574,4271.538574,4288.461426,4270.897461,4298.589844,4283.589844,4259.102539,4238.717773,4227.307617,4065.128174,4268.589844,3617,3,73,,,,0,4,4,4,4,4,4,4,4,4,4,4,4,4,4,100,,,,,,,,,,,,,,,,,30,0,0.583794,0.35083,-0.626709,0.378601,1.008804,-0.035645,-0.025391,-23.926146,-95.40551,2.093538
1648680182,1648680182,121,0,4251.666504,4239.487305,4247.05127,4252.436035,4270,4285.641113,4266.794922,4285.384766,4279.358887,4254.871582,4241.922852,4225,4045.897461,4263.077148,3614,3,73,,,,0,4,4,4,4,4,4,4,4,4,4,4,4,4,4,100,,,,,,,,,,,,,,,,,,,,,,,,,,,,
1648680182,1648680182,122,0,4236.153809,4223.333496,4229.871582,4236.794922,4246.922852,4271.410156,4254.487305,4260.512695,4250.128418,4236.025879,4220.769043,4203.717773,4032.179443,4247.05127,3612,3,73,,,,0,4,4,4,4,4,4,4,4,4,4,4,4,4,4,100,,,,,,,,,,,,,,,,,,,,,,,,,,,,
1648680182,1648680182,123,0,4236.153809,4236.410156,4229.230957,4236.282227,4238.205078,4262.94873,4252.307617,4253.461426,4240.512695,4231.538574,4207.179688,4195.897461,4051.153809,4245,3606,3,73,,,,0,4,4,4,4,4,4,4,4,4,4,4,4,4,4,100,,,,,,,,,,,,,,,,,,,,,,,,,,,,
1648680182,1648680182,124,0,4235,4236.282227,4226.666504,4233.205078,4246.666504,4257.820313,4247.179688,4245.384766,4236.538574,4218.717773,4198.077148,4192.307617,4060.256348,4238.717773,3617,3,73,,,,0,4,4,4,4,4,4,4,4,4,4,4,4,4,4,100,,,,,,,,,,,,,,,,,31,0,0.583851,0.351196,-0.626709,0.378174,1.00734,-0.033692,-0.029786,-24.5243,-95.555046,1.196307
1648680182,1648680182,125,0,4234.358887,4228.589844,4228.205078,4233.717773,4262.05127,4265.769043,4250.769043,4250.769043,4240.641113,4220.769043,4203.333496,4198.461426,4063.461426,4241.282227,3614,3,73,,,,0,4,4,4,4,4,4,4,4,4,4,4,4,4,4,100,,,,,,,,,,,,,,,,,,,,,,,,,,,,
1648680182,1648680182,126,0,4238.846191,4240.512695,4234.102539,4239.743652,4264.487305,4273.974121,4258.717773,4262.94873,4252.436035,4237.563965,4211.282227,4203.717773,4069.230713,4248.205078,3612,3,73,,,,0,4,4,4,4,4,4,4,4,4,4,4,4,4,4,100,,,,,,,,,,,,,,,,,,,,,,,,,,,,
1648680182,1648680182,127,0,4249.615234,4253.974121,4239.871582,4251.794922,4268.717773,4280.897461,4267.179688,4267.94873,4263.077148,4241.153809,4217.179688,4206.922852,4068.333252,4251.410156,55,3,73,,,,0,4,4,4,4,4,4,4,4,4,4,4,4,4,4,100,,,,,,,,,,,,,,,,,,,,,,,,,,,,
1648680182,1648680183,0,0,4229.230957,4232.563965,4219.871582,4234.358887,4255.641113,4267.05127,4252.307617,4246.794922,4238.205078,4217.307617,4205.384766,4190,4030.641113,4229.487305,3614,3,73,,,,0,4,4,4,4,4,4,4,4,4,4,4,4,4,4,100,,,,,,,,,,,,,,,,,0,0,0.584056,0.351379,-0.626526,0.377991,1.008804,-0.041505,-0.028809,-23.627069,-96.003662,2.990768
1648680182,1648680183,1,0,4218.974121,4226.153809,4214.871582,4223.974121,4253.205078,4266.922852,4249.615234,4249.487305,4233.717773,4221.794922,4210,4189.358887,4018.974365,4227.179688,3601,3,73,,,,0,4,4,4,4,4,4,4,4,4,4,4,4,4,4,100,,,,,,,,,,,,,,,,,,,,,,,,,,,,
1648680183,1648680183,2,0,4227.179688,4237.307617,4221.153809,4230.769043,4258.974121,4274.358887,4258.461426,4266.025879,4252.436035,4236.025879,4214.615234,4197.692383,4047.435791,4238.461426,3611,3,73,,,,0,4,4,4,4,4,4,4,4,4,4,4,4,4,4,100,,,,,,,,,,,,,,,,,,,,,,,,,,,,
1648680183,1648680183,3,0,4243.846191,4250.512695,4232.563965,4247.692383,4269.230957,4283.717773,4272.179688,4279.358887,4268.974121,4245.641113,4220,4209.230957,4081.153809,4252.179688,3107,3,73,,,,0,4,4,4,4,4,4,4,4,4,4,4,4,4,4,100,,,,,,,,,,,,,,,,,,,,,,,,,,,,
1648680183,1648680183,4,0,4240.897461,4244.230957,4234.615234,4247.692383,4265.128418,4279.358887,4267.692383,4279.102539,4268.077148,4243.205078,4220.897461,4209.871582,4073.333252,4252.692383,3643,3,73,,,,0,4,4,4,4,4,4,4,4,4,4,4,4,4,4,100,,,,,,,,,,,,,,,,,1,0,0.584087,0.351501,-0.626465,0.37793,1.012711,-0.043458,-0.026368,-23.477531,-93.611046,1.794461
1648680183,1648680183,5,0,4241.666504,4242.307617,4238.974121,4248.974121,4268.846191,4281.794922,4267.563965,4283.974121,4273.205078,4246.025879,4227.179688,4213.077148,4056.025635,4256.538574,3610,3,73,,,,0,4,4,4,4,4,4,4,4,4,4,4,4,4,4,100,,,,,,,,,,,,,,,,,,,,,,,,,,,,
1648680183,1648680183,6,0,4246.922852,4245.897461,4240.384766,4248.589844,4273.717773,4288.461426,4273.717773,4285,4274.230957,4254.230957,4228.461426,4213.589844,4052.820557,4253.205078,3377,3,73,,,,0,4,4,4,4,4,4,4,4,4,4,4,4,4,4,100,,,,,,,,,,,,,,,,,,,,,,,,,,,,
1648680183,1648680183,7,0,4241.922852,4244.230957,4232.307617,4242.05127,4269.102539,4287.307617,4271.282227,4273.589844,4261.922852,4251.794922,4217.820313,4204.230957,4055.512939,4238.077148,3608,3,73,,,,0,4,4,4,4,4,4,4,4,4,4,4,4,4,4,100,,,,,,,,,,,,,,,,,,,,,,,,,,,,
1648680183,1648680183,8,0,4232.563965,4238.846191,4223.974121,4239.102539,4262.692383,4281.153809,4262.820313,4263.333496,4252.563965,4237.94873,4208.461426,4192.436035,4053.333252,4232.05127,3602,3,73,,,,0,4,4,4,4,4,4,4,4,4,4,4,4,4,4,100,,,,,,,,,,,,,,,,,2,0,0.583989,0.351685,-0.626343,0.378113,1.010758,-0.038087,-0.020508,-24.5243,-93.012894,3.73846
1648680183,1648680183,9,0,4230.641113,4236.794922,4221.538574,4233.205078,4262.05127,4279.230957,4262.179688,4260.384766,4250.512695,4230.512695,4207.179688,4190.641113,4053.846191,4235.384766,3633,3,73,,,,0,4,4,4,4,4,4,4,4,4,4,4,4,4,4,100,,,,,,,,,,,,,,,,,,,,,,,,,,,,
1648680183,1648680183,10,0,4237.692383,4235,4224.358887,4227.05127,4269.102539,4282.94873,4267.179688,4263.205078,4253.717773,4235.512695,4212.307617,4200.128418,4072.692383,4238.205078,3635,3,73,,,,0,4,4,4,4,4,4,4,4,4,4,4,4,4,4,100,,,,,,,,,,,,,,,,,,,,,,,,,,,,
1648680183,1648680183,11,0,4229.102539,4231.666504,4216.538574,4221.025879,4259.615234,4272.179688,4255.256348,4247.307617,4238.077148,4221.025879,4202.820313,4191.410156,4064.743652,4228.846191,3638,3,73,,,,0,4,4,4,4,4,4,4,4,4,4,4,4,4,4,100,,,,,,,,,,,,,,,,,,,,,,,,,,,,
1648680183,1648680183,12,0,4226.410156,4238.333496,4216.794922,4224.102539,4253.333496,4270.769043,4251.922852,4244.743652,4233.846191,4221.538574,4200.641113,4186.666504,4034.871826,4229.102539,3652,3,73,,,,0,4,4,4,4,4,4,4,4,4,4,4,4,4,4,100,,,,,,,,,,,,,,,,,3,0,0.583936,0.35199,-0.626221,0.378113,1.013687,-0.058595,-0.024414,-23.028915,-95.40551,1.794461
1648680183,1648680183,13,0,4216.794922,4227.94873,4206.410156,4211.153809,4242.563965,4261.025879,4247.436035,4242.563965,4230.384766,4218.846191,4189.743652,4178.717773,4020.897461,4218.717773,3659,3,73,,,,0,4,4,4,4,4,4,4,4,4,4,4,4,4,4,100,,,,,,,,,,,,,,,,,,,,,,,,,,,,
1648680183,1648680183,14,0,4219.358887,4227.179688,4209.230957,4213.205078,4239.358887,4253.077148,4246.666504,4243.846191,4234.230957,4213.205078,4190.641113,4181.410156,4043.846191,4220.512695,3635,3,73,,,,0,4,4,4,4,4,4,4,4,4,4,4,4,4,4,100,,,,,,,,,,,,,,,,,,,,,,,,,,,,
1648680183,1648680183,15,0,4226.666504,4231.666504,4218.589844,4219.102539,4236.410156,4248.974121,4244.487305,4245.128418,4239.615234,4217.563965,4205.384766,4189.487305,4045.641113,4233.333496,3638,3,73,,,,0,4,4,4,4,4,4,4,4,4,4,4,4,4,4,100,,,,,,,,,,,,,,,,,,,,,,,,,,,,
1648680183,1648680183,16,0,4231.794922,4231.410156,4222.820313,4215.641113,4241.666504,4256.794922,4249.743652,4254.358887,4249.358887,4235.897461,4216.538574,4200.256348,4040.256348,4243.846191,0,3,73,,,,0,4,4,4,4,4,4,4,4,4,4,4,4,4,4,100,,,,,,,,,,,,,,,,,4,0,0.583882,0.351929,-0.626343,0.378052,1.024918,-0.047852,-0.02002,-24.5243,-93.012894,2.243076
1648680183,1648680183,17,0,4220.641113,4224.871582,4207.692383,4202.436035,4233.717773,4247.94873,4241.282227,4246.153809,4237.307617,4226.025879,4192.820313,4183.846191,4046.794922,4228.846191,0,3,73,,,,0,4,4,4,4,4,4,4,4,4,4,4,4,4,4,100,,,,,,,,,,,,,,,,,,,,,,,,,,,,
1648680183,1648680183,18,0,4223.077148,4233.077148,4208.333496,4211.282227,4234.487305,4246.922852,4241.025879,4244.871582,4231.538574,4217.179688,4183.461426,4178.333496,4064.102539,4222.179688,0,3,73,,,,0,4,4,4,4,4,4,4,4,4,4,4,4,4,4,100,,,,,,,,,,,,,,,,,,,,,,,,,,,,
1648680183,1648680183,19,0,4220.256348,4226.410156,4209.102539,4210.128418,4234.871582,4249.230957,4242.563965,4244.358887,4234.487305,4213.589844,4189.487305,4184.615234,4053.846191,4221.153809,0,3,73,,,,0,4,4,4,4,4,4,4,4,4,4,4,4,4,4,100,,,,,,,,,,,,,,,,,,,,,,,,,,,,
1648680183,1648680183,20,0,4218.333496,4225.897461,4211.538574,4205.256348,4236.153809,4253.461426,4248.846191,4245.128418,4240.897461,4218.461426,4195.897461,4190.769043,4052.820557,4228.846191,0,3,73,,,,0,4,4,4,4,4,4,4,4,4,4,4,4,4,4,100,,,,,,,,,,,,,,,,,5,0,0.584019,0.351746,-0.626465,0.377808,1.003433,-0.0542,-0.039551,-25.122454,-94.358742,2.093538
1648680183,1648680183,21,0,4219.743652,4232.179688,4214.871582,4207.94873,4233.077148,4249.102539,4246.410156,4246.666504,4239.230957,4224.743652,4194.230957,4189.615234,4060.256348,4230.384766,0,3,73,,,,0,4,4,4,4,4,4,4,4,4,4,4,4,4,4,100,,,,,,,,,,,,,,,,,,,,,,,,,,,,
1648680183,1648680183,22,0,4219.358887,4230.128418,4214.743652,4210.897461,4233.333496,4249.230957,4243.846191,4253.333496,4242.05127,4228.974121,4202.05127,4191.410156,4052.564209,4227.820313,0,3,73,,,,0,4,4,4,4,4,4,4,4,4,4,4,4,4,4,100,,,,,,,,,,,,,,,,,,,,,,,,,,,,
1648680183,1648680183,23,0,4222.820313,4229.487305,4217.692383,4211.794922,4240.256348,4260,4249.615234,4261.794922,4253.589844,4233.333496,4213.205078,4200.128418,4060.769287,4233.974121,0,3,73,,,,0,4,4,4,4,4,4,4,4,4,4,4,4,4,4,100,,,,,,,,,,,,,,,,,,,,,,,,,,,,
1648680183,1648680183,24,0,4231.410156,4244.487305,4225.256348,4217.436035,4246.794922,4264.230957,4254.230957,4260.128418,4252.307617,4232.692383,4211.282227,4205.641113,4070.256348,4240.897461,0,3,73,,,,0,4,4,4,4,4,4,4,4,4,4,4,4,4,4,100,,,,,,,,,,,,,,,,,6,0,0.584258,0.351501,-0.626526,0.377563,0.99855,-0.045411,-0.021485,-24.225224,-95.854126,2.542153
1648680183,1648680183,25,0,4233.077148,4249.743652,4225.641113,4223.333496,4244.487305,4257.692383,4247.05127,4252.05127,4244.358887,4226.153809,4211.153809,4204.358887,4052.94873,4240.512695,0,3,73,,,,0,4,4,4,4,4,4,4,4,4,4,4,4,4,4,100,,,,,,,,,,,,,,,,,,,,,,,,,,,,
1648680183,1648680183,26,0,4229.743652,4235.897461,4218.333496,4218.846191,4238.205078,4253.589844,4235.641113,4248.333496,4245.512695,4221.282227,4215,4199.230957,4052.820557,4240.769043,0,3,73,,,,0,4,4,4,4,4,4,4,4,4,4,4,4,4,4,100,,,,,,,,,,,,,,,,,,,,,,,,,,,,
1648680183,1648680183,27,0,4240.769043,4234.487305,4225.897461,4222.436035,4250.128418,4262.563965,4240.128418,4260.769043,4255,4236.410156,4221.410156,4210.897461,4090.256348,4254.615234,0,3,73,,,,0,4,4,4,4,4,4,4,4,4,4,4,4,4,4,100,,,,,,,,,,,,,,,,,,,,,,,,,,,,
1648680183,1648680183,28,0,4232.692383,4232.820313,4220,4214.487305,4244.358887,4250.256348,4233.589844,4250.256348,4235,4221.410156,4200.897461,4201.666504,4076.538574,4241.922852,0,3,73,,,,0,4,4,4,4,4,4,4,4,4,4,4,4,4,4,100,,,,,,,,,,,,,,,,,7,0,0.584453,0.351135,-0.626587,0.377502,1.025895,-0.03418,-0.036622,-23.028915,-93.611046,2.84123
1648680183,1648680183,29,0,4226.666504,4237.179688,4218.205078,4216.282227,4240.256348,4246.410156,4232.563965,4244.230957,4225.641113,4203.333496,4193.717773,4192.94873,4053.461426,4235.769043,0,3,73,,,,0,4,4,4,4,4,4,4,4,4,4,4,4,4,4,100,0.976563,58.333332,4,4,3,4,3,3,4,3,4,3,4,4,1,3,,,,,,,,,,,,
1648680183,1648680183,30,0,4233.461426,4240.384766,4223.974121,4225.128418,4250.384766,4259.358887,4239.871582,4250.897461,4234.230957,4210.641113,4201.922852,4201.025879,4069.615479,4244.102539,0,3,73,,,,0,4,4,4,4,4,4,4,4,4,4,4,4,4,4,100,,,,,,,,,,,,,,,,,,,,,,,,,,,,
1648680183,1648680183,31,0,4246.410156,4247.179688,4235.641113,4236.410156,4265.769043,4277.05127,4249.871582,4263.333496,4247.307617,4232.94873,4217.94873,4216.794922,4086.538574,4255.512695,0,3,73,,,,0,4,4,4,4,4,4,4,4,4,4,4,4,4,4,100,,,,,,,,,,,,,,,,,,,,,,,,,,,,
1648680183,1648680183,32,0,4239.358887,4240.256348,4228.461426,4224.102539,4251.538574,4265.769043,4241.410156,4260.384766,4244.230957,4231.794922,4215,4205,4072.94873,4245.769043,0,3,73,,,,0,4,4,4,4,4,4,4,4,4,4,4,4,4,4,100,,,,,,,,,,,,,,,,,8,0,0.584665,0.350891,-0.626709,0.377197,1.011734,-0.043946,-0.024903,-23.477531,-94.358742,2.093538
1648680183,1648680183,33,0,4244.358887,4241.153809,4232.692383,4223.205078,4244.743652,4258.461426,4243.333496,4264.102539,4253.589844,4234.102539,4214.230957,4204.230957,4080.384521,4247.563965,0,3,73,,,,0,4,4,4,4,4,4,4,4,4,4,4,4,4,4,100,,,,,,,,,,,,,,,,,,,,,,,,,,,,
1648680183,1648680183,34,0,4246.538574,4241.922852,4236.153809,4230.256348,4243.717773,4254.487305,4240.256348,4259.743652,4255.256348,4232.94873,4215.641113,4211.794922,4079.102539,4250.128418,0,3,73,,,,0,4,4,4,4,4,4,4,4,4,4,4,4,4,4,100,,,,,,,,,,,,,,,,,,,,,,,,,,,,
1648680183,1648680183,35,0,4244.871582,4241.282227,4238.717773,4232.05127,4247.94873,4258.205078,4236.922852,4259.871582,4251.538574,4236.666504,4224.102539,4217.94873,4078.718018,4254.102539,0,3,73,,,,0,4,4,4,4,4,4,4,4,4,4,4,4,4,4,100,,,,,,,,,,,,,,,,,,,,,,,,,,,,
1648680183,1648680183,36,0,4238.077148,4233.589844,4234.615234,4219.102539,4247.436035,4256.794922,4236.794922,4260.641113,4246.153809,4237.05127,4219.743652,4211.025879,4090.128174,4251.666504,0,3,73,,,,0,4,4,4,4,4,4,4,4,4,4,4,4,4,4,100,,,,,,,,,,,,,,,,,9,0,0.584773,0.350647,-0.626892,0.376953,1.012223,-0.043946,-0.032227,-24.5243,-94.807358,2.691691
1648680183,1648680183,37,0,4241.666504,4234.871582,4234.102539,4220.641113,4249.615234,4257.692383,4242.436035,4263.077148,4247.179688,4226.794922,4209.230957,4208.077148,4099.487305,4254.102539,0,3,73,,,,0,4,4,4,4,4,4,4,4,4,4,4,4,4,4,100,,,,,,,,,,,,,,,,,,,,,,,,,,,,
1648680183,1648680183,38,0,4243.333496,4235.384766,4231.794922,4226.922852,4247.563965,4257.820313,4239.743652,4263.461426,4246.666504,4216.025879,4209.230957,4210,4081.666748,4252.436035,0,3,73,,,,0,4,4,4,4,4,4,4,4,4,4,4,4,4,4,100,,,,,,,,,,,,,,,,,,,,,,,,,,,,
1648680183,1648680183,39,0,4240.641113,4237.436035,4229.871582,4223.974121,4245.641113,4258.846191,4239.871582,4260.128418,4243.717773,4225.641113,4221.794922,4209.615234,4050.256348,4242.820313,0,3,73,,,,0,4,4,4,4,4,4,4,4,4,4,4,4,4,4,100,,,,,,,,,,,,,,,,,,,,,,,,,,,,
1648680183,1648680183,40,0,4242.94873,4243.589844,4236.025879,4227.563965,4253.974121,4267.05127,4250,4261.025879,4246.538574,4240.512695,4228.333496,4211.794922,4055.256348,4248.589844,0,3,73,,,,0,4,4,4,4,4,4,4,4,4,4,4,4,4,4,100,,,,,,,,,,,,,,,,,10,0,0.584791,0.350464,-0.627014,0.376892,0.999527,-0.032715,-0.025391,-23.477531,-95.40551,3.289845
1648680183,1648680183,41,0,4241.153809,4238.717773,4234.615234,4232.179688,4259.871582,4270.641113,4252.307617,4260.897461,4246.538574,4231.153809,4212.563965,4208.333496,4095,4254.358887,0,3,73,,,,0,4,4,4,4,4,4,4,4,4,4,4,4,4,4,100,,,,,,,,,,,,,,,,,,,,,,,,,,,,
1648680183,1648680183,42,0,4239.615234,4233.333496,4231.666504,4233.461426,4257.436035,4269.743652,4246.410156,4258.846191,4245.641113,4225.641113,4202.179688,4206.025879,4117.692383,4246.794922,0,3,73,,,,0,4,4,4,4,4,4,4,4,4,4,4,4,4,4,100,,,,,,,,,,,,,,,,,,,,,,,,,,,,
1648680183,1648680183,43,0,4235,4236.282227,4227.05127,4223.717773,4248.077148,4260.769043,4236.410156,4245.897461,4233.974121,4224.871582,4208.333496,4203.846191,4085.512939,4236.666504,0,3,73,,,,0,4,4,4,4,4,4,4,4,4,4,4,4,4,4,100,,,,,,,,,,,,,,,,,,,,,,,,,,,,
1648680183,1648680183,44,0,4251.025879,4247.436035,4241.538574,4236.538574,4258.846191,4267.563965,4246.282227,4256.282227,4239.743652,4232.436035,4229.230957,4217.692383,4071.153809,4256.410156,0,3,73,,,,0,4,4,4,4,4,4,4,4,4,4,4,4,4,4,100,,,,,,,,,,,,,,,,,11,0,0.584854,0.350403,-0.627136,0.376648,1.005386,-0.038087,-0.028321,-24.5243,-95.255974,2.691691
1648680183,1648680183,45,0,4252.563965,4240.512695,4243.589844,4240.769043,4257.563965,4265.128418,4248.974121,4261.538574,4241.538574,4226.538574,4219.102539,4213.333496,4090,4258.333496,0,3,73,,,,0,4,4,4,4,4,4,4,4,4,4,4,4,4,4,100,,,,,,,,,,,,,,,,,,,,,,,,,,,,
1648680183,1648680183,46,0,4249.230957,4249.487305,4243.589844,4237.563965,4259.230957,4269.615234,4253.589844,4267.436035,4249.487305,4239.102539,4223.846191,4217.820313,4108.461426,4257.94873,0,3,73,,,,0,4,4,4,4,4,4,4,4,4,4,4,4,4,4,100,,,,,,,,,,,,,,,,,,,,,,,,,,,,
1648680183,1648680183,47,0,4254.358887,4263.205078,4247.436035,4240.384766,4266.666504,4278.461426,4258.077148,4271.153809,4256.025879,4251.666504,4249.743652,4231.666504,4086.666748,4269.487305,0,3,73,,,,0,4,4,4,4,4,4,4,4,4,4,4,4,4,4,100,,,,,,,,,,,,,,,,,,,,,,,,,,,,
1648680183,1648680183,48,0,4268.589844,4257.94873,4256.666504,4252.05127,4272.94873,4284.615234,4263.077148,4273.333496,4260.897461,4248.717773,4252.563965,4236.794922,4086.538574,4278.717773,0,3,73,,,,0,4,4,4,4,4,4,4,4,4,4,4,4,4,4,100,,,,,,,,,,,,,,,,,12,0,0.585027,0.350464,-0.627014,0.376526,1.000504,-0.029297,-0.030274,-23.327993,-94.508278,3.439384
1648680183,1648680183,49,0,4254.743652,4235.897461,4242.820313,4235.641113,4256.410156,4266.538574,4249.230957,4259.615234,4246.666504,4230.769043,4217.05127,4217.563965,4119.230957,4261.666504,0,3,73,,,,0,4,4,4,4,4,4,4,4,4,4,4,4,4,4,100,,,,,,,,,,,,,,,,,,,,,,,,,,,,
1648680183,1648680183,50,0,4247.563965,4243.077148,4235.128418,4230,4257.307617,4264.615234,4251.410156,4260.512695,4244.102539,4231.282227,4214.871582,4215.256348,4127.307617,4260.256348,0,3,73,,,,0,4,4,4,4,4,4,4,4,4,4,4,4,4,4,100,,,,,,,,,,,,,,,,,,,,,,,,,,,,
1648680183,1648680183,51,0,4249.615234,4248.846191,4235.897461,4239.230957,4261.153809,4269.615234,4254.743652,4262.436035,4243.846191,4231.282227,4220.512695,4215.641113,4097.563965,4261.025879,0,3,73,,,,0,4,4,4,4,4,4,4,4,4,4,4,4,4,4,100,,,,,,,,,,,,,,,,,,,,,,,,,,,,
1648680183,1648680183,52,0,4248.974121,4243.717773,4238.717773,4242.179688,4261.282227,4270,4254.743652,4261.025879,4241.153809,4230,4212.05127,4213.717773,4103.205078,4255.512695,0,3,73,,,,0,4,4,4,4,4,4,4,4,4,4,4,4,4,4,100,,,,,,,,,,,,,,,,,13,0,0.585294,0.350281,-0.626831,0.376587,1.012711,-0.046876,-0.025879,-24.075686,-94.209198,2.691691
1648680183,1648680183,53,0,4243.846191,4244.230957,4235.128418,4237.179688,4265,4270.256348,4257.436035,4268.461426,4246.538574,4237.05127,4214.487305,4215.256348,4118.846191,4255.512695,0,3,73,,,,0,4,4,4,4,4,4,4,4,4,4,4,4,4,4,100,,,,,,,,,,,,,,,,,,,,,,,,,,,,
1648680183,1648680183,54,0,4244.743652,4251.666504,4234.871582,4240.769043,4271.025879,4276.025879,4262.94873,4278.589844,4254.871582,4245.641113,4228.974121,4217.563965,4104.230957,4257.179688,0,3,73,,,,0,4,4,4,4,4,4,4,4,4,4,4,4,4,4,100,,,,,,,,,,,,,,,,,,,,,,,,,,,,
1648680183,1648680183,55,0,4246.025879,4251.794922,4241.794922,4244.743652,4270.512695,4278.589844,4264.102539,4279.615234,4256.025879,4246.922852,4235.256348,4217.436035,4090,4253.461426,0,3,73,,,,0,4,4,4,4,4,4,4,4,4,4,4,4,4,4,100,,,,,,,,,,,,,,,,,,,,,,,,,,,,
1648680183,1648680183,56,0,4245,4249.743652,4241.794922,4244.102539,4268.333496,4275.641113,4261.153809,4267.820313,4247.436035,4236.153809,4225.897461,4214.871582,4092.564209,4251.282227,0,3,73,,,,0,4,4,4,4,4,4,4,4,4,4,4,4,4,4,100,,,,,,,,,,,,,,,,,14,0,0.585219,0.349792,-0.626953,0.376953,1.012711,-0.059571,-0.01709,-24.225224,-95.10643,2.093538
1648680183,1648680183,57,0,4247.179688,4243.589844,4236.282227,4243.077148,4269.102539,4272.307617,4255.512695,4257.820313,4240.512695,4232.692383,4217.692383,4216.282227,4104.102539,4255.256348,0,3,73,,,,0,4,4,4,4,4,4,4,4,4,4,4,4,4,4,100,,,,,,,,,,,,,,,,,,,,,,,,,,,,
1648680183,1648680183,58,0,4237.563965,4233.333496,4231.025879,4233.974121,4260,4264.230957,4246.922852,4253.461426,4233.589844,4234.487305,4209.487305,4209.487305,4102.436035,4246.153809,0,3,73,,,,0,4,4,4,4,4,4,4,4,4,4,4,4,4,4,100,,,,,,,,,,,,,,,,,,,,,,,,,,,,
1648680183,1648680183,59,0,4237.179688,4238.589844,4238.846191,4235.512695,4263.589844,4268.461426,4251.153809,4261.666504,4237.05127,4238.717773,4214.871582,4210.384766,4102.563965,4246.153809,0,3,73,,,,0,4,4,4,4,4,4,4,4,4,4,4,4,4,4,100,,,,,,,,,,,,,,,,,,,,,,,,,,,,
1648680183,1648680183,60,0,4234.743652,4233.974121,4229.615234,4227.820313,4259.230957,4263.589844,4241.410156,4249.487305,4224.358887,4222.563965,4209.358887,4205,4092.692383,4242.436035,0,3,73,,,,0,4,4,4,4,4,4,4,4,4,4,4,4,4,4,100,,,,,,,,,,,,,,,,,15,0,0.585133,0.34906,-0.627258,0.377258,1.01857,-0.072755,-0.023926,-24.075686,-96.003662,1.196307
1648680183,1648680183,61,0,4241.025879,4237.179688,4232.692383,4233.846191,4260.384766,4263.205078,4241.794922,4248.589844,4225.641113,4220.897461,4214.743652,4212.179688,4084.358887,4249.615234,0,3,73,,,,0,4,4,4,4,4,4,4,4,4,4,4,4,4,4,100,,,,,,,,,,,,,,,,,,,,,,,,,,,,
1648680183,1648680183,62,0,4246.794922,4247.436035,4244.871582,4244.102539,4265,4267.307617,4253.333496,4259.487305,4240.128418,4233.846191,4224.871582,4221.666504,4086.794922,4259.743652,0,3,73,,,,0,4,4,4,4,4,4,4,4,4,4,4,4,4,4,100,,,,,,,,,,,,,,,,,,,,,,,,,,,,
1648680183,1648680183,63,0,4255.384766,4248.846191,4249.358887,4246.922852,4271.410156,4277.436035,4262.307617,4271.538574,4252.94873,4252.692383,4229.871582,4230.641113,4117.94873,4266.922852,0,3,73,,,,0,4,4,4,4,4,4,4,4,4,4,4,4,4,4,100,,,,,,,,,,,,,,,,,,,,,,,,,,,,
1648680183,1648680183,64,0,4243.461426,4228.846191,4229.615234,4226.794922,4258.333496,4262.563965,4245.512695,4260,4239.871582,4241.153809,4215.128418,4217.436035,4107.94873,4252.05127,3615,3,73,,,,0,4,4,4,4,4,4,4,4,4,4,4,4,4,4,100,,,,,,,,,,,,,,,,,16,0,0.585312,0.348145,-0.627563,0.377319,1.013199,-0.055665,-0.031739,-23.926146,-94.657814,3.289845
1648680183,1648680183,65,0,4238.717773,4233.589844,4230.769043,4225.897461,4254.230957,4254.615234,4239.487305,4252.820313,4234.102539,4227.436035,4217.05127,4215,4086.410156,4251.153809,3591,3,73,,,,0,4,4,4,4,4,4,4,4,4,4,4,4,4,4,100,,,,,,,,,,,,,,,,,,,,,,,,,,,,
1648680183,1648680183,66,0,4237.820313,4239.487305,4238.846191,4231.153809,4252.563965,4256.282227,4240.897461,4250.769043,4236.153809,4225.256348,4220.128418,4215.128418,4092.692383,4251.538574,3596,3,73,,,,0,4,4,4,4,4,4,4,4,4,4,4,4,4,4,100,,,,,,,,,,,,,,,,,,,,,,,,,,,,
1648680183,1648680183,67,0,4241.410156,4230.641113,4240.769043,4229.871582,4255.512695,4265.384766,4247.820313,4259.743652,4240.769043,4235.128418,4222.94873,4215.641113,4099.102539,4252.05127,3092,3,73,,,,0,4,4,4,4,4,4,4,4,4,4,4,4,4,4,100,,,,,,,,,,,,,,,,,,,,,,,,,,,,
1648680183,1648680183,68,0,4240.897461,4224.358887,4235.128418,4225.128418,4257.05127,4265.641113,4247.05127,4261.153809,4233.077148,4238.846191,4222.05127,4217.563965,4092.692383,4256.025879,3624,3,73,,,,0,4,4,4,4,4,4,4,4,4,4,4,4,4,4,100,,,,,,,,,,,,,,,,,17,0,0.58552,0.347595,-0.62793,0.376892,0.999039,-0.041016,-0.021485,-25.122454,-93.611046,2.542153
1648680183,1648680183,69,0,4238.717773,4237.563965,4231.794922,4229.102539,4259.871582,4262.563965,4245.769043,4252.94873,4225.128418,4231.282227,4215.128418,4217.692383,4108.717773,4256.794922,3592,3,73,,,,0,4,4,4,4,4,4,4,4,4,4,4,4,4,4,100,,,,,,,,,,,,,,,,,,,,,,,,,,,,
1648680183,1648680183,70,0,4237.820313,4242.563965,4235,4233.589844,4260.641113,4261.538574,4244.102539,4252.692383,4230.769043,4222.820313,4211.922852,4215.256348,4119.230957,4253.077148,3373,3,73,,,,0,4,4,4,4,4,4,4,4,4,4,4,4,4,4,100,,,,,,,,,,,,,,,,,,,,,,,,,,,,
1648680183,1648680183,71,0,4244.743652,4233.205078,4243.846191,4232.94873,4257.820313,4259.871582,4238.974121,4255.384766,4233.717773,4223.461426,4217.94873,4218.717773,4105.384766,4260.256348,3593,3,73,,,,0,4,4,4,4,4,4,4,4,4,4,4,4,4,4,100,,,,,,,,,,,,,,,,,,,,,,,,,,,,
1648680183,1648680183,72,0,4250.769043,4227.307617,4246.794922,4233.333496,4256.025879,4257.563965,4236.794922,4255.256348,4229.743652,4227.05127,4219.102539,4220.897461,4103.461426,4265.512695,3578,3,73,,,,0,4,4,4,4,4,4,4,4,4,4,4,4,4,4,100,,,,,,,,,,,,,,,,,18,0,0.585541,0.347473,-0.628052,0.37677,1.001968,-0.036133,-0.030274,-23.477531,-95.40551,3.588922
1648680183,1648680183,73,0,4238.589844,4229.871582,4233.974121,4227.307617,4251.153809,4250.128418,4232.563965,4248.589844,4223.974121,4220.512695,4211.025879,4208.461426,4095.897461,4248.461426,3612,3,73,,,,0,4,4,4,4,4,4,4,4,4,4,4,4,4,4,100,,,,,,,,,,,,,,,,,,,,,,,,,,,,
1648680183,1648680183,74,0,4238.589844,4240.769043,4237.179688,4229.615234,4252.179688,4254.487305,4232.307617,4250.641113,4230.256348,4232.307617,4220,4212.820313,4086.666748,4248.717773,3614,3,73,,,,0,4,4,4,4,4,4,4,4,4,4,4,4,4,4,100,,,,,,,,,,,,,,,,,,,,,,,,,,,,
1648680183,1648680183,75,0,4242.436035,4240.897461,4238.974121,4229.358887,4249.358887,4253.333496,4228.974121,4246.025879,4227.692383,4233.205078,4211.666504,4216.153809,4093.076904,4255.512695,3617,3,73,,,,0,4,4,4,4,4,4,4,4,4,4,4,4,4,4,100,,,,,,,,,,,,,,,,,,,,,,,,,,,,
1648680183,1648680183,76,0,4249.102539,4240.256348,4243.077148,4236.538574,4259.358887,4256.538574,4236.666504,4256.538574,4233.846191,4231.153809,4208.846191,4220.128418,4117.436035,4261.666504,3623,3,73,,,,0,4,4,4,4,4,4,4,4,4,4,4,4,4,4,100,,,,,,,,,,,,,,,,,19,0,0.585789,0.347473,-0.628113,0.376282,1.009781,-0.036622,-0.02295,-23.627069,-93.76059,2.243076
1648680183,1648680183,77,0,4241.025879,4234.871582,4238.589844,4230.769043,4255.769043,4251.922852,4231.666504,4258.589844,4229.615234,4229.615234,4217.05127,4215.897461,4108.461426,4254.487305,3615,3,73,,,,0,4,4,4,4,4,4,4,4,4,4,4,4,4,4,100,,,,,,,,,,,,,,,,,,,,,,,,,,,,
1648680183,1648680183,78,0,4244.230957,4237.692383,4242.05127,4231.025879,4253.717773,4253.846191,4228.974121,4256.410156,4233.205078,4237.436035,4230.512695,4223.461426,4095.769287,4258.077148,3614,3,73,,,,0,4,4,4,4,4,4,4,4,4,4,4,4,4,4,100,,,,,,,,,,,,,,,,,,,,,,,,,,,,
1648680183,1648680183,79,0,4248.077148,4239.230957,4241.538574,4229.230957,4252.307617,4255.512695,4230.512695,4252.436035,4236.282227,4232.820313,4223.077148,4225.897461,4108.077148,4260.128418,3617,3,73,,,,0,4,4,4,4,4,4,4,4,4,4,4,4,4,4,100,,,,,,,,,,,,,,,,,,,,,,,,,,,,
1648680183,1648680183,80,0,4246.922852,4244.615234,4246.153809,4231.538574,4259.358887,4264.230957,4239.358887,4257.179688,4234.102539,4231.666504,4217.307617,4226.025879,4132.05127,4263.846191,3623,3,73,,,,0,4,4,4,4,4,4,4,4,4,4,4,4,4,4,100,,,,,,,,,,,,,,,,,20,0,0.586112,0.347656,-0.62793,0.375916,1.017594,-0.04004,-0.019043,-24.075686,-95.255974,2.691691
1648680183,1648680183,81,0,4232.436035,4232.436035,4236.410156,4225,4251.282227,4255.256348,4232.05127,4245.128418,4215.256348,4218.461426,4211.025879,4213.461426,4105.897461,4252.307617,3615,3,73,,,,0,4,4,4,4,4,4,4,4,4,4,4,4,4,4,100,,,,,,,,,,,,,,,,,,,,,,,,,,,,
1648680183,1648680183,82,0,4234.615234,4232.05127,4233.717773,4227.820313,4250,4252.307617,4231.282227,4240.384766,4218.205078,4219.487305,4217.307617,4211.282227,4082.820557,4248.589844,3614,3,73,,,,0,4,4,4,4,4,4,4,4,4,4,4,4,4,4,100,,,,,,,,,,,,,,,,,,,,,,,,,,,,
1648680183,1648680183,83,0,4239.230957,4238.461426,4237.436035,4226.538574,4251.153809,4254.487305,4235.256348,4247.820313,4230.128418,4228.077148,4220,4213.589844,4101.922852,4250.128418,3617,3,73,,,,0,4,4,4,4,4,4,4,4,4,4,4,4,4,4,100,,,,,,,,,,,,,,,,,,,,,,,,,,,,
1648680183,1648680183,84,0,4243.333496,4242.94873,4243.205078,4226.538574,4253.205078,4258.205078,4238.461426,4256.538574,4230.641113,4225.641113,4220.512695,4219.487305,4127.692383,4253.974121,3623,3,73,,,,0,4,4,4,4,4,4,4,4,4,4,4,4,4,4,100,,,,,,,,,,,,,,,,,21,0,0.586199,0.347839,-0.627747,0.375916,1.022965,-0.043946,-0.027344,-25.122454,-95.10643,2.093538
1648680183,1648680183,85,0,4246.538574,4244.102539,4245.384766,4234.230957,4255.512695,4258.205078,4234.102539,4256.666504,4230.384766,4226.410156,4223.077148,4223.717773,4125.769043,4255.769043,3615,3,73,,,,0,4,4,4,4,4,4,4,4,4,4,4,4,4,4,100,,,,,,,,,,,,,,,,,,,,,,,,,,,,
1648680183,1648680183,86,0,4245.512695,4244.615234,4244.102539,4236.410156,4257.179688,4259.743652,4232.692383,4255.641113,4237.820313,4237.692383,4227.563965,4223.205078,4121.153809,4255.897461,3614,3,73,,,,0,4,4,4,4,4,4,4,4,4,4,4,4,4,4,100,,,,,,,,,,,,,,,,,,,,,,,,,,,,
1648680183,1648680183,87,0,4241.666504,4239.871582,4242.307617,4228.077148,4255.128418,4261.794922,4232.820313,4258.205078,4242.563965,4240.256348,4231.282227,4223.205078,4121.153809,4257.05127,3617,3,73,,,,0,4,4,4,4,4,4,4,4,4,4,4,4,4,4,100,,,,,,,,,,,,,,,,,,,,,,,,,,,,
1648680183,1648680183,88,0,4240.256348,4234.487305,4240.128418,4221.538574,4247.94873,4255.512695,4229.358887,4255.641113,4232.05127,4232.94873,4225.512695,4221.025879,4112.94873,4255.256348,3623,3,73,,,,0,4,4,4,4,4,4,4,4,4,4,4,4,4,4,100,,,,,,,,,,,,,,,,,22,0,0.58627,0.347961,-0.627686,0.375793,1.013199,-0.04004,-0.027344,-24.673838,-93.311974,2.542153
1648680183,1648680183,89,0,4244.487305,4237.692383,4246.666504,4229.487305,4253.461426,4257.692383,4233.333496,4259.487305,4233.846191,4241.153809,4228.717773,4226.282227,4115.897461,4261.153809,3615,3,73,,,,0,4,4,4,4,4,4,4,4,4,4,4,4,4,4,100,,,,,,,,,,,,,,,,,,,,,,,,,,,,
1648680183,1648680183,90,0,4243.974121,4233.974121,4247.563965,4229.102539,4258.205078,4261.538574,4236.410156,4264.230957,4244.358887,4242.94873,4236.153809,4227.179688,4114.743652,4261.922852,3614,3,73,,,,0,4,4,4,4,4,4,4,4,4,4,4,4,4,4,100,,,,,,,,,,,,,,,,,,,,,,,,,,,,
1648680183,1648680183,91,0,4258.589844,4241.538574,4257.307617,4235.641113,4266.025879,4271.410156,4245,4279.230957,4257.436035,4251.666504,4246.538574,4235.512695,4126.410156,4269.230957,3617,3,73,,,,0,4,4,4,4,4,4,4,4,4,4,4,4,4,4,100,,,,,,,,,,,,,,,,,,,,,,,,,,,,
1648680183,1648680183,92,0,4254.743652,4244.615234,4251.922852,4232.692383,4259.358887,4265.769043,4241.922852,4271.410156,4247.94873,4248.333496,4233.717773,4232.307617,4131.666504,4264.487305,3623,3,73,,,,0,4,4,4,4,4,4,4,4,4,4,4,4,4,4,100,,,,,,,,,,,,,,,,,23,0,0.586199,0.347839,-0.62793,0.37561,1.023453,-0.048829,-0.021973,-23.327993,-94.209198,1.644923
1648680183,1648680183,93,0,4249.487305,4242.94873,4250.256348,4234.230957,4261.538574,4268.717773,4245.769043,4262.05127,4244.102539,4242.436035,4233.717773,4233.461426,4128.589844,4265.128418,3615,3,73,,,,0,4,4,4,4,4,4,4,4,4,4,4,4,4,4,100,0.976563,83.333336,4,4,3,4,4,4,4,4,4,4,4,4,3,4,,,,,,,,,,,,
1648680183,1648680183,94,0,4251.153809,4237.05127,4252.05127,4234.871582,4266.153809,4272.05127,4246.538574,4261.538574,4240.384766,4235.641113,4236.922852,4232.05127,4126.666504,4263.974121,3614,3,73,,,,0,4,4,4,4,4,4,4,4,4,4,4,4,4,4,100,,,,,,,,,,,,,,,,,,,,,,,,,,,,
1648680183,1648680183,95,0,4260.128418,4246.025879,4257.94873,4243.077148,4271.025879,4271.666504,4249.487305,4267.94873,4243.077148,4240.641113,4238.205078,4236.666504,4137.692383,4268.461426,3617,3,73,,,,0,4,4,4,4,4,4,4,4,4,4,4,4,4,4,100,,,,,,,,,,,,,,,,,,,,,,,,,,,,
1648680183,1648680183,96,0,4248.974121,4244.615234,4246.794922,4237.820313,4260,4259.102539,4239.230957,4255.384766,4239.871582,4238.589844,4231.922852,4228.333496,4119.102539,4260.384766,3623,3,73,,,,0,4,4,4,4,4,4,4,4,4,4,4,4,4,4,100,,,,,,,,,,,,,,,,,24,0,0.586308,0.347412,-0.628174,0.375427,1.005875,-0.042481,-0.030274,-24.5243,-94.807358,2.243076
1648680183,1648680183,97,0,4242.94873,4239.230957,4242.563965,4232.436035,4258.077148,4262.179688,4237.820313,4255.512695,4240.256348,4242.05127,4233.205078,4223.077148,4105,4255.384766,3615,3,73,,,,0,4,4,4,4,4,4,4,4,4,4,4,4,4,4,100,,,,,,,,,,,,,,,,,,,,,,,,,,,,
1648680183,1648680183,98,0,4238.077148,4229.358887,4238.077148,4219.615234,4254.615234,4262.820313,4237.563965,4256.666504,4230.769043,4235.512695,4220,4217.05127,4115.641113,4247.94873,3614,3,73,,,,0,4,4,4,4,4,4,4,4,4,4,4,4,4,4,100,,,,,,,,,,,,,,,,,,,,,,,,,,,,
1648680183,1648680183,99,0,4237.05127,4231.282227,4235.128418,4213.333496,4252.563965,4260.256348,4237.94873,4248.077148,4224.487305,4226.538574,4210.256348,4214.871582,4127.94873,4248.333496,3617,3,73,,,,0,4,4,4,4,4,4,4,4,4,4,4,4,4,4,100,,,,,,,,,,,,,,,,,,,,,,,,,,,,
1648680183,1648680183,100,0,4235.256348,4233.205078,4234.230957,4214.487305,4250,4254.743652,4229.487305,4239.230957,4219.487305,4221.922852,4213.974121,4212.692383,4116.282227,4246.666504,3623,3,73,,,,0,4,4,4,4,4,4,4,4,4,4,4,4,4,4,100,,,,,,,,,,,,,,,,,25,0,0.586595,0.347168,-0.628296,0.375,1.013687,-0.056153,-0.020996,-24.5243,-94.807358,2.990768
1648680183,1648680183,101,0,4233.461426,4233.077148,4237.307617,4217.05127,4252.820313,4255.256348,4226.025879,4239.871582,4216.666504,4218.974121,4221.025879,4213.717773,4104.615234,4243.205078,3615,3,73,,,,0,4,4,4,4,4,4,4,4,4,4,4,4,4,4,100,,,,,,,,,,,,,,,,,,,,,,,,,,,,
1648680183,1648680183,102,0,4241.153809,4235.256348,4244.358887,4223.205078,4258.461426,4260.512695,4233.333496,4246.282227,4228.846191,4229.615234,4226.538574,4220.384766,4110.128418,4250,3614,3,73,,,,0,4,4,4,4,4,4,4,4,4,4,4,4,4,4,100,,,,,,,,,,,,,,,,,,,,,,,,,,,,
1648680183,1648680183,103,0,4252.563965,4240.641113,4249.743652,4230.641113,4261.025879,4261.794922,4237.05127,4251.025879,4240,4244.615234,4227.692383,4223.461426,4126.922852,4259.615234,3617,3,73,,,,0,4,4,4,4,4,4,4,4,4,4,4,4,4,4,100,,,,,,,,,,,,,,,,,,,,,,,,,,,,
1648680183,1648680183,104,0,4259.871582,4245.512695,4256.153809,4238.077148,4267.820313,4264.230957,4237.820313,4258.846191,4243.461426,4243.461426,4231.922852,4228.846191,4148.333496,4267.94873,3623,3,73,,,,0,4,4,4,4,4,4,4,4,4,4,4,4,4,4,100,,,,,,,,,,,,,,,,,26,0,0.586758,0.347046,-0.628357,0.374756,1.002457,-0.042481,-0.026368,-23.926146,-94.657814,2.093538
1648680183,1648680183,105,0,4254.358887,4239.102539,4255.641113,4232.820313,4265.641113,4259.743652,4235,4253.717773,4235,4230.256348,4231.410156,4228.205078,4141.922852,4264.871582,3615,3,73,,,,0,4,4,4,4,4,4,4,4,4,4,4,4,4,4,100,,,,,,,,,,,,,,,,,,,,,,,,,,,,
1648680183,1648680183,106,0,4252.692383,4240,4253.846191,4230,4262.94873,4258.461426,4236.538574,4247.179688,4235.769043,4241.666504,4232.436035,4230.128418,4127.820313,4265.256348,3614,3,73,,,,0,4,4,4,4,4,4,4,4,4,4,4,4,4,4,100,,,,,,,,,,,,,,,,,,,,,,,,,,,,
1648680183,1648680183,107,0,4245.769043,4239.230957,4243.974121,4225.769043,4256.282227,4253.205078,4231.922852,4238.974121,4232.563965,4241.025879,4224.871582,4223.205078,4120.256348,4258.205078,3617,3,73,,,,0,4,4,4,4,4,4,4,4,4,4,4,4,4,4,100,,,,,,,,,,,,,,,,,,,,,,,,,,,,
1648680183,1648680183,108,0,4256.153809,4244.358887,4256.794922,4239.743652,4268.077148,4264.743652,4243.077148,4257.307617,4242.179688,4243.205078,4238.205078,4232.820313,4138.846191,4266.282227,3623,3,73,,,,0,4,4,4,4,4,4,4,4,4,4,4,4,4,4,100,,,,,,,,,,,,,,,,,27,0,0.586908,0.346924,-0.628357,0.374634,0.99855,-0.035645,-0.023926,-25.57107,-93.76059,1.943999
1648680183,1648680183,109,0,4256.153809,4240.256348,4257.94873,4237.820313,4266.025879,4262.179688,4243.077148,4257.307617,4235.897461,4243.333496,4238.589844,4232.436035,4138.333496,4263.333496,3615,3,73,,,,0,4,4,4,4,4,4,4,4,4,4,4,4,4,4,100,,,,,,,,,,,,,,,,,,,,,,,,,,,,
1648680183,1648680183,110,0,4250.641113,4238.974121,4249.743652,4228.846191,4263.461426,4262.307617,4240.384766,4245.512695,4227.820313,4239.487305,4231.282227,4227.436035,4126.922852,4260.769043,3614,3,73,,,,0,4,4,4,4,4,4,4,4,4,4,4,4,4,4,100,,,,,,,,,,,,,,,,,,,,,,,,,,,,
1648680183,1648680183,111,0,4249.102539,4240,4248.077148,4228.717773,4265.897461,4270.641113,4242.179688,4247.307617,4230.256348,4231.410156,4227.436035,4222.692383,4120.384766,4260,3617,3,73,,,,0,4,4,4,4,4,4,4,4,4,4,4,4,4,4,100,,,,,,,,,,,,,,,,,,,,,,,,,,,,
1648680183,1648680183,112,0,4261.666504,4245.512695,4261.410156,4239.487305,4274.230957,4279.102539,4254.615234,4268.846191,4246.666504,4243.846191,4236.538574,4230.897461,4135.384766,4266.153809,3623,3,73,,,,0,4,4,4,4,4,4,4,4,4,4,4,4,4,4,100,,,,,,,,,,,,,,,,,28,0,0.586996,0.346863,-0.628418,0.374451,1.000992,-0.0542,-0.020508,-24.225224,-94.657814,1.046769
1648680183,1648680183,113,0,4256.922852,4235.769043,4254.358887,4228.846191,4263.333496,4265,4247.94873,4264.358887,4241.794922,4237.436035,4230.512695,4227.820313,4140.769043,4262.94873,3615,3,73,,,,0,4,4,4,4,4,4,4,4,4,4,4,4,4,4,100,,,,,,,,,,,,,,,,,,,,,,,,,,,,
1648680183,1648680183,114,0,4256.410156,4235.897461,4251.794922,4225.512695,4259.871582,4262.692383,4240.641113,4254.871582,4239.102539,4229.487305,4231.666504,4228.077148,4142.179688,4266.025879,3614,3,73,,,,0,4,4,4,4,4,4,4,4,4,4,4,4,4,4,100,,,,,,,,,,,,,,,,,,,,,,,,,,,,
1648680183,1648680183,115,0,4257.179688,4242.179688,4253.846191,4229.871582,4260.384766,4262.436035,4235.128418,4255.897461,4245.128418,4245.512695,4239.358887,4229.871582,4145.256348,4265.384766,3617,3,73,,,,0,4,4,4,4,4,4,4,4,4,4,4,4,4,4,100,,,,,,,,,,,,,,,,,,,,,,,,,,,,
1648680183,1648680183,116,0,4257.692383,4250.128418,4252.563965,4236.282227,4261.922852,4260.256348,4235.512695,4256.153809,4246.282227,4259.871582,4243.205078,4232.436035,4152.692383,4264.871582,3623,3,73,,,,0,4,4,4,4,4,4,4,4,4,4,4,4,4,4,100,,,,,,,,,,,,,,,,,29,0,0.587027,0.346741,-0.628601,0.374207,1.021988,-0.044923,-0.009766,-24.075686,-95.255974,2.990768
1648680183,1648680183,117,0,4262.307617,4252.307617,4255.384766,4241.794922,4266.922852,4266.282227,4241.410156,4257.563965,4245.769043,4254.743652,4243.461426,4234.230957,4157.563965,4272.94873,3615,3,73,,,,0,4,4,4,4,4,4,4,4,4,4,4,4,4,4,100,,,,,,,,,,,,,,,,,,,,,,,,,,,,
1648680183,1648680183,118,0,4260.641113,4243.974121,4255.128418,4237.307617,4267.179688,4270.384766,4242.692383,4258.205078,4247.307617,4249.615234,4238.461426,4230.512695,4151.538574,4272.179688,3614,3,73,,,,0,4,4,4,4,4,4,4,4,4,4,4,4,4,4,100,,,,,,,,,,,,,,,,,,,,,,,,,,,,
1648680183,1648680183,119,0,4256.025879,4236.538574,4252.307617,4234.358887,4265.897461,4266.538574,4241.025879,4254.358887,4245,4250.384766,4237.179688,4230.769043,4142.820313,4266.282227,3617,3,73,,,,0,4,4,4,4,4,4,4,4,4,4,4,4,4,4,100,,,,,,,,,,,,,,,,,,,,,,,,,,,,
1648680183,1648680183,120,0,4257.179688,4242.179688,4252.436035,4237.307617,4268.846191,4268.589844,4240.512695,4249.487305,4233.717773,4240.897461,4240.128418,4232.820313,4141.025879,4266.025879,3623,3,73,,,,0,4,4,4,4,4,4,4,4,4,4,4,4,4,4,100,,,,,,,,,,,,,,,,,30,0,0.586987,0.346741,-0.628784,0.373962,0.993667,-0.034668,-0.028809,-24.673838,-94.657814,1.794461
1648680183,1648680183,121,0,4262.94873,4247.436035,4259.102539,4243.205078,4275.641113,4279.102539,4245.384766,4258.333496,4236.794922,4238.333496,4242.820313,4236.922852,4156.153809,4270.641113,3615,3,73,,,,0,4,4,4,4,4,4,4,4,4,4,4,4,4,4,100,,,,,,,,,,,,,,,,,,,,,,,,,,,,
1648680183,1648680183,122,0,4251.282227,4235.897461,4248.717773,4232.307617,4263.461426,4266.666504,4238.717773,4252.436035,4231.282227,4229.358887,4227.692383,4225.384766,4153.846191,4260.769043,3614,3,73,,,,0,4,4,4,4,4,4,4,4,4,4,4,4,4,4,100,,,,,,,,,,,,,,,,,,,,,,,,,,,,
1648680183,1648680183,123,0,4255.384766,4244.358887,4250.128418,4235.769043,4262.820313,4262.820313,4239.487305,4247.94873,4229.102539,4228.077148,4228.846191,4226.922852,4142.820313,4266.025879,3617,3,73,,,,0,4,4,4,4,4,4,4,4,4,4,4,4,4,4,100,,,,,,,,,,,,,,,,,,,,,,,,,,,,
1648680183,1648680183,124,0,4255.512695,4242.179688,4248.589844,4234.102539,4259.358887,4259.743652,4233.717773,4242.563965,4222.94873,4219.615234,4222.94873,4221.922852,4135.512695,4262.436035,3623,3,73,,,,0,4,4,4,4,4,4,4,4,4,4,4,4,4,4,100,,,,,,,,,,,,,,,,,31,0,0.587035,0.34668,-0.628845,0.37384,1.005386,-0.03711,-0.03125,-22.430761,-95.555046,1.196307
1648680183,1648680183,125,0,4253.846191,4232.05127,4249.230957,4231.538574,4261.025879,4263.717773,4238.333496,4248.461426,4226.153809,4225.384766,4218.077148,4218.589844,4148.717773,4258.333496,3615,3,73,,,,0,4,4,4,4,4,4,4,4,4,4,4,4,4,4,100,,,,,,,,,,,,,,,,,,,,,,,,,,,,
1648680183,1648680183,126,0,4255.512695,4235.384766,4249.230957,4232.307617,4265.384766,4269.871582,4246.153809,4255.897461,4228.846191,4238.205078,4225.512695,4223.205078,4157.563965,4261.538574,3614,3,73,,,,0,4,4,4,4,4,4,4,4,4,4,4,4,4,4,100,,,,,,,,,,,,,,,,,,,,,,,,,,,,
1648680183,1648680183,127,0,4268.077148,4251.153809,4257.692383,4243.846191,4275.128418,4281.282227,4252.692383,4266.922852,4238.333496,4243.077148,4240.897461,4238.461426,4161.666504,4272.563965,55,3,73,,,,0,4,4,4,4,4,4,4,4,4,4,4,4,4,4,100,,,,,,,,,,,,,,,,,,,,,,,,,,,,
1648680183,1648680183,0,0,4258.846191,4242.820313,4250.384766,4236.538574,4267.436035,4272.05127,4245,4258.717773,4238.717773,4234.102539,4233.077148,4228.461426,4144.615234,4260.769043,3603,3,73,,,,0,4,4,4,4,4,4,4,4,4,4,4,4,4,4,100,,,,,,,,,,,,,,,,,0,0,0.587173,0.346558,-0.628784,0.37384,1.00148,-0.053223,-0.033204,-25.42153,-97.199966,2.542153
1648680183,1648680184,1,0,4256.282227,4245.769043,4250.512695,4235.128418,4273.846191,4273.205078,4249.102539,4258.974121,4241.025879,4251.153809,4237.179688,4221.794922,4142.94873,4261.025879,3593,3,73,,,,0,4,4,4,4,4,4,4,4,4,4,4,4,4,4,100,,,,,,,,,,,,,,,,,,,,,,,,,,,,
1648680184,1648680184,2,0,4256.410156,4248.717773,4249.487305,4234.487305,4274.871582,4272.436035,4244.743652,4259.487305,4235.641113,4252.820313,4232.820313,4222.94873,4154.615234,4263.846191,3597,3,73,,,,0,4,4,4,4,4,4,4,4,4,4,4,4,4,4,100,,,,,,,,,,,,,,,,,,,,,,,,,,,,
1648680184,1648680184,3,0,4245.897461,4236.410156,4242.179688,4225.769043,4258.846191,4258.589844,4234.487305,4252.563965,4229.743652,4232.820313,4210.384766,4215.641113,4157.563965,4252.563965,3092,3,73,,,,0,4,4,4,4,4,4,4,4,4,4,4,4,4,4,100,,,,,,,,,,,,,,,,,,,,,,,,,,,,
1648680184,1648680184,4,0,4234.358887,4225.641113,4233.717773,4217.436035,4247.05127,4248.717773,4228.205078,4245,4225.769043,4227.820313,4202.692383,4205.769043,4142.94873,4242.307617,3626,3,73,,,,0,4,4,4,4,4,4,4,4,4,4,4,4,4,4,100,,,,,,,,,,,,,,,,,1,0,0.587389,0.346191,-0.628784,0.37384,1.031266,-0.044923,-0.029297,-23.926146,-94.657814,3.289845
1648680184,1648680184,5,0,4237.692383,4236.153809,4234.615234,4224.487305,4254.615234,4257.179688,4232.94873,4238.717773,4218.461426,4226.922852,4213.077148,4209.358887,4133.717773,4246.922852,3598,3,73,,,,0,4,4,4,4,4,4,4,4,4,4,4,4,4,4,100,,,,,,,,,,,,,,,,,,,,,,,,,,,,
1648680184,1648680184,6,0,4245.384766,4242.692383,4243.589844,4231.282227,4260.769043,4265.384766,4238.461426,4236.282227,4214.358887,4221.282227,4215.128418,4213.974121,4136.410156,4253.333496,3381,3,73,,,,0,4,4,4,4,4,4,4,4,4,4,4,4,4,4,100,,,,,,,,,,,,,,,,,,,,,,,,,,,,
1648680184,1648680184,7,0,4242.94873,4231.922852,4245.384766,4225.128418,4255.641113,4259.230957,4236.794922,4238.589844,4213.077148,4224.487305,4209.743652,4208.461426,4136.410156,4248.589844,3588,3,73,,,,0,4,4,4,4,4,4,4,4,4,4,4,4,4,4,100,,,,,,,,,,,,,,,,,,,,,,,,,,,,
1648680184,1648680184,8,0,4242.05127,4228.846191,4242.436035,4225.384766,4258.589844,4256.025879,4236.538574,4243.205078,4214.487305,4231.794922,4217.436035,4212.692383,4144.230957,4248.717773,3566,3,73,,,,0,4,4,4,4,4,4,4,4,4,4,4,4,4,4,100,,,,,,,,,,,,,,,,,2,0,0.587558,0.345703,-0.628967,0.373718,1.00441,-0.041993,-0.019532,-23.028915,-94.657814,1.345846
1648680184,1648680184,9,0,4240.256348,4236.025879,4235.769043,4223.717773,4255.897461,4250.512695,4232.05127,4227.563965,4204.358887,4215,4214.230957,4211.666504,4139.102539,4246.282227,3593,3,73,,,,0,4,4,4,4,4,4,4,4,4,4,4,4,4,4,100,,,,,,,,,,,,,,,,,,,,,,,,,,,,
1648680184,1648680184,10,0,4246.153809,4240.641113,4243.589844,4226.410156,4256.410156,4253.205078,4235,4225.769043,4206.666504,4215.384766,4215.641113,4213.461426,4134.102539,4249.487305,3629,3,73,,,,0,4,4,4,4,4,4,4,4,4,4,4,4,4,4,100,,,,,,,,,,,,,,,,,,,,,,,,,,,,
1648680184,1648680184,11,0,4240.128418,4230.897461,4238.205078,4221.282227,4252.179688,4250.512695,4231.794922,4227.436035,4204.615234,4221.794922,4212.05127,4207.563965,4125.641113,4240.128418,3621,3,73,,,,0,4,4,4,4,4,4,4,4,4,4,4,4,4,4,100,,,,,,,,,,,,,,,,,,,,,,,,,,,,
1648680184,1648680184,12,0,4246.666504,4244.358887,4241.282227,4233.461426,4258.333496,4255.128418,4236.666504,4231.922852,4208.717773,4231.666504,4216.025879,4214.871582,4135,4244.743652,3632,3,73,,,,0,4,4,4,4,4,4,4,4,4,4,4,4,4,4,100,,,,,,,,,,,,,,,,,3,0,0.587678,0.34552,-0.629028,0.373596,1.003433,-0.049317,-0.012696,-25.122454,-96.153198,1.794461
1648680184,1648680184,13,0,4250,4248.205078,4244.102539,4235.128418,4254.230957,4250,4231.666504,4226.922852,4204.487305,4227.563965,4215,4215.128418,4138.846191,4248.077148,3626,3,73,,,,0,4,4,4,4,4,4,4,4,4,4,4,4,4,4,100,,,,,,,,,,,,,,,,,,,,,,,,,,,,
1648680184,1648680184,14,0,4252.563965,4237.307617,4248.717773,4232.820313,4260.256348,4254.743652,4236.666504,4233.846191,4208.205078,4228.717773,4220.384766,4219.102539,4149.743652,4254.487305,3629,3,73,,,,0,4,4,4,4,4,4,4,4,4,4,4,4,4,4,100,,,,,,,,,,,,,,,,,,,,,,,,,,,,
1648680184,1648680184,15,0,4249.230957,4234.487305,4245.769043,4232.307617,4265.512695,4259.615234,4243.205078,4239.487305,4214.230957,4228.205078,4219.743652,4220.769043,4156.410156,4254.358887,3621,3,73,,,,0,4,4,4,4,4,4,4,4,4,4,4,4,4,4,100,,,,,,,,,,,,,,,,,,,,,,,,,,,,
1648680184,1648680184,16,0,4254.615234,4249.743652,4251.922852,4240.128418,4268.461426,4263.974121,4249.102539,4250.512695,4228.205078,4237.436035,4227.307617,4225.897461,4158.589844,4256.538574,0,3,73,,,,0,4,4,4,4,4,4,4,4,4,4,4,4,4,4,100,,,,,,,,,,,,,,,,,4,0,0.587912,0.345032,-0.62915,0.373474,1.010758,-0.042969,-0.025879,-24.673838,-94.657814,2.84123
1648680184,1648680184,17,0,4248.846191,4242.94873,4249.230957,4232.820313,4261.922852,4257.563965,4242.436035,4248.205078,4225.897461,4241.666504,4229.358887,4217.94873,4151.794922,4250.384766,0,3,73,,,,0,4,4,4,4,4,4,4,4,4,4,4,4,4,4,100,,,,,,,,,,,,,,,,,,,,,,,,,,,,
1648680184,1648680184,18,0,4250,4237.563965,4248.846191,4231.666504,4264.743652,4263.205078,4244.230957,4241.794922,4219.615234,4235.769043,4227.05127,4216.922852,4161.666504,4253.461426,0,3,73,,,,0,4,4,4,4,4,4,4,4,4,4,4,4,4,4,100,,,,,,,,,,,,,,,,,,,,,,,,,,,,
1648680184,1648680184,19,0,4253.333496,4240.512695,4250.128418,4236.153809,4263.717773,4265.128418,4245,4236.666504,4216.153809,4226.410156,4220.256348,4220.641113,4162.94873,4252.820313,0,3,73,,,,0,4,4,4,4,4,4,4,4,4,4,4,4,4,4,100,,,,,,,,,,,,,,,,,,,,,,,,,,,,
1648680184,1648680184,20,0,4249.358887,4243.846191,4246.922852,4236.666504,4258.461426,4258.077148,4243.205078,4238.589844,4215,4233.333496,4220.384766,4218.717773,4148.846191,4249.615234,0,3,73,,,,0,4,4,4,4,4,4,4,4,4,4,4,4,4,4,100,,,,,,,,,,,,,,,,,5,0,0.588139,0.344666,-0.629211,0.373352,1.011246,-0.039063,-0.023438,-26.617838,-94.657814,1.794461
1648680184,1648680184,21,0,4249.615234,4244.102539,4245.384766,4234.102539,4261.538574,4259.230957,4246.794922,4248.846191,4223.717773,4248.077148,4226.666504,4217.436035,4152.94873,4255,0,3,73,,,,0,4,4,4,4,4,4,4,4,4,4,4,4,4,4,100,,,,,,,,,,,,,,,,,,,,,,,,,,,,
1648680184,1648680184,22,0,4245.128418,4235.256348,4240,4222.820313,4262.05127,4259.230957,4246.282227,4244.487305,4227.179688,4246.025879,4222.820313,4214.871582,4167.820313,4251.538574,0,3,73,,,,0,4,4,4,4,4,4,4,4,4,4,4,4,4,4,100,,,,,,,,,,,,,,,,,,,,,,,,,,,,
1648680184,1648680184,23,0,4242.820313,4232.563965,4240.641113,4223.077148,4261.025879,4258.461426,4247.692383,4241.025879,4224.230957,4246.153809,4224.871582,4217.820313,4171.666504,4250.384766,0,3,73,,,,0,4,4,4,4,4,4,4,4,4,4,4,4,4,4,100,,,,,,,,,,,,,,,,,,,,,,,,,,,,
1648680184,1648680184,24,0,4247.820313,4244.358887,4244.743652,4232.820313,4258.846191,4258.974121,4253.589844,4244.230957,4218.077148,4239.615234,4225.897461,4218.205078,4152.820313,4252.563965,0,3,73,,,,0,4,4,4,4,4,4,4,4,4,4,4,4,4,4,100,,,,,,,,,,,,,,,,,6,0,0.58821,0.344788,-0.62915,0.37323,1.007828,-0.028321,-0.023926,-24.075686,-95.255974,2.691691
1648680184,1648680184,25,0,4255.897461,4253.846191,4250.128418,4239.230957,4261.538574,4264.230957,4256.153809,4246.666504,4221.666504,4230.512695,4222.692383,4218.974121,4150.769043,4251.922852,0,3,73,,,,0,4,4,4,4,4,4,4,4,4,4,4,4,4,4,100,,,,,,,,,,,,,,,,,,,,,,,,,,,,
1648680184,1648680184,26,0,4243.589844,4240.256348,4241.282227,4225.897461,4254.358887,4254.102539,4243.077148,4234.615234,4215,4224.102539,4217.820313,4211.794922,4152.692383,4240.769043,0,3,73,,,,0,4,4,4,4,4,4,4,4,4,4,4,4,4,4,100,,,,,,,,,,,,,,,,,,,,,,,,,,,,
1648680184,1648680184,27,0,4245.384766,4240,4244.230957,4228.974121,4259.102539,4257.179688,4248.205078,4243.589844,4222.820313,4234.871582,4235.512695,4218.205078,4148.205078,4249.615234,0,3,73,,,,0,4,4,4,4,4,4,4,4,4,4,4,4,4,4,100,,,,,,,,,,,,,,,,,,,,,,,,,,,,
1648680184,1648680184,28,0,4242.436035,4235.897461,4240.384766,4223.077148,4251.282227,4251.666504,4243.717773,4241.922852,4219.615234,4225.128418,4226.282227,4210.256348,4138.077148,4245.256348,0,3,73,,,,0,4,4,4,4,4,4,4,4,4,4,4,4,4,4,100,,,,,,,,,,,,,,,,,7,0,0.588229,0.345398,-0.628906,0.373047,1.018082,-0.044923,-0.027832,-23.926146,-95.10643,1.794461
