title:Eleccion1, start timestamp:1649271041.213394, stop timestamp:1649271066.407202, headset type:EPOCPLUS, headset serial:4A2C0467, headset firmware:633, channels:67, sampling rate:eeg_128;mot_32, samples:3230      , version:2.1, 
Timestamp,OriginalTimestamp,EEG.Counter,EEG.Interpolated,EEG.AF3,EEG.F7,EEG.F3,EEG.FC5,EEG.T7,EEG.P7,EEG.O1,EEG.O2,EEG.P8,EEG.T8,EEG.FC6,EEG.F4,EEG.F8,EEG.AF4,EEG.RawCq,EEG.Battery,EEG.BatteryPercent,MarkerIndex,MarkerType,MarkerValueInt,EEG.MarkerHardware,CQ.AF3,CQ.F7,CQ.F3,CQ.FC5,CQ.T7,CQ.P7,CQ.O1,CQ.O2,CQ.P8,CQ.T8,CQ.FC6,CQ.F4,CQ.F8,CQ.AF4,CQ.Overall,EQ.SampleRateQuality,EQ.OVERALL,EQ.AF3,EQ.F7,EQ.F3,EQ.FC5,EQ.T7,EQ.P7,EQ.O1,EQ.O2,EQ.P8,EQ.T8,EQ.FC6,EQ.F4,EQ.F8,EQ.AF4,MOT.CounterMems,MOT.InterpolatedMems,MOT.Q0,MOT.Q1,MOT.Q2,MOT.Q3,MOT.AccX,MOT.AccY,MOT.AccZ,MOT.MagX,MOT.MagY,MOT.MagZ
1649271041.213394,1649271041.223102,103.000000,0.000000,4227.179688,4228.461426,4211.922852,4228.461426,4244.615234,4231.666504,4218.589844,4231.922852,4273.589844,4217.051270,4211.410156,4227.820313,4211.922852,4225.256348,3595.000000,1.000000,15.000000,,,,0.000000,4.000000,4.000000,4.000000,4.000000,4.000000,4.000000,4.000000,4.000000,4.000000,4.000000,4.000000,4.000000,4.000000,4.000000,100.000000,,,,,,,,,,,,,,,,,,,,,,,,,,,,
1649271041.221196,1649271041.231006,104.000000,0.000000,4232.051270,4234.487305,4217.692383,4237.563965,4250.000000,4231.153809,4220.512695,4228.974121,4287.179688,4220.897461,4217.307617,4237.563965,4221.410156,4233.974121,3547.000000,1.000000,15.000000,,,,0.000000,4.000000,4.000000,4.000000,4.000000,4.000000,4.000000,4.000000,4.000000,4.000000,4.000000,4.000000,4.000000,4.000000,4.000000,100.000000,,,,,,,,,,,,,,,,,26.000000,0.000000,0.640154,-0.367065,-0.588928,-0.329590,0.999527,-0.054200,0.048829,-28.262760,-93.910126,-2.542153
1649271041.228998,1649271041.238811,105.000000,0.000000,4234.358887,4232.563965,4219.743652,4236.410156,4251.538574,4233.589844,4225.769043,4232.051270,4278.333496,4213.717773,4219.358887,4240.000000,4222.179688,4233.717773,3499.000000,1.000000,15.000000,,,,0.000000,4.000000,4.000000,4.000000,4.000000,4.000000,4.000000,4.000000,4.000000,4.000000,4.000000,4.000000,4.000000,4.000000,4.000000,100.000000,,,,,,,,,,,,,,,,,,,,,,,,,,,,
1649271041.236801,1649271041.246615,106.000000,0.000000,4229.358887,4224.230957,4213.205078,4227.692383,4243.077148,4232.563965,4223.717773,4234.615234,4279.615234,4217.563965,4211.922852,4230.256348,4211.410156,4222.307617,3601.000000,1.000000,15.000000,,,,0.000000,4.000000,4.000000,4.000000,4.000000,4.000000,4.000000,4.000000,4.000000,4.000000,4.000000,4.000000,4.000000,4.000000,4.000000,100.000000,,,,,,,,,,,,,,,,,,,,,,,,,,,,
1649271041.244603,1649271041.254319,107.000000,0.000000,4228.846191,4226.922852,4213.717773,4231.538574,4243.077148,4229.871582,4217.563965,4229.487305,4283.333496,4225.384766,4215.641113,4231.922852,4216.538574,4224.102539,3595.000000,1.000000,15.000000,,,,0.000000,4.000000,4.000000,4.000000,4.000000,4.000000,4.000000,4.000000,4.000000,4.000000,4.000000,4.000000,4.000000,4.000000,4.000000,100.000000,,,,,,,,,,,,,,,,,,,,,,,,,,,,
1649271041.252406,1649271041.262224,108.000000,0.000000,4241.666504,4235.512695,4225.512695,4242.307617,4249.871582,4229.487305,4217.307617,4230.000000,4279.102539,4226.025879,4231.025879,4245.769043,4235.897461,4240.128418,3547.000000,1.000000,15.000000,,,,0.000000,4.000000,4.000000,4.000000,4.000000,4.000000,4.000000,4.000000,4.000000,4.000000,4.000000,4.000000,4.000000,4.000000,4.000000,100.000000,,,,,,,,,,,,,,,,,27.000000,0.000000,0.640392,-0.366943,-0.588745,-0.329590,1.019058,-0.062013,0.042969,-27.814146,-95.106430,-1.794461
1649271041.260208,1649271041.270028,109.000000,0.000000,4251.410156,4236.922852,4233.461426,4243.846191,4251.282227,4230.384766,4221.025879,4236.922852,4280.641113,4232.307617,4238.205078,4253.461426,4239.871582,4247.692383,3499.000000,1.000000,15.000000,,,,0.000000,4.000000,4.000000,4.000000,4.000000,4.000000,4.000000,4.000000,4.000000,4.000000,4.000000,4.000000,4.000000,4.000000,4.000000,100.000000,,,,,,,,,,,,,,,,,,,,,,,,,,,,
1649271041.268010,1649271041.277832,110.000000,0.000000,4241.025879,4235.897461,4225.384766,4235.897461,4250.897461,4229.871582,4218.461426,4232.051270,4277.179688,4235.256348,4231.153809,4247.820313,4234.615234,4238.846191,3601.000000,1.000000,15.000000,,,,0.000000,4.000000,4.000000,4.000000,4.000000,4.000000,4.000000,4.000000,4.000000,4.000000,4.000000,4.000000,4.000000,4.000000,4.000000,100.000000,,,,,,,,,,,,,,,,,,,,,,,,,,,,
1649271041.275813,1649271041.285537,111.000000,0.000000,4222.436035,4228.846191,4207.179688,4229.230957,4240.769043,4227.051270,4212.948730,4217.563965,4261.410156,4216.025879,4216.282227,4234.230957,4230.256348,4223.461426,3595.000000,1.000000,15.000000,,,,0.000000,4.000000,4.000000,4.000000,4.000000,4.000000,4.000000,4.000000,4.000000,4.000000,4.000000,4.000000,4.000000,4.000000,4.000000,100.000000,,,,,,,,,,,,,,,,,,,,,,,,,,,,
1649271041.283615,1649271041.293241,112.000000,0.000000,4225.384766,4224.358887,4208.205078,4231.666504,4234.102539,4227.563965,4215.384766,4221.794922,4251.410156,4216.538574,4216.794922,4231.282227,4229.487305,4225.128418,3547.000000,1.000000,15.000000,,,,0.000000,4.000000,4.000000,4.000000,4.000000,4.000000,4.000000,4.000000,4.000000,4.000000,4.000000,4.000000,4.000000,4.000000,4.000000,100.000000,,,,,,,,,,,,,,,,,28.000000,0.000000,0.640512,-0.367004,-0.588440,-0.329834,1.005875,-0.058106,0.040040,-28.711376,-93.461510,-1.196307
1649271041.291417,1649271041.301045,113.000000,0.000000,4231.538574,4228.717773,4217.692383,4234.102539,4246.282227,4230.769043,4217.436035,4228.461426,4249.102539,4228.461426,4225.128418,4239.358887,4233.461426,4231.666504,3499.000000,1.000000,15.000000,,,,0.000000,4.000000,4.000000,4.000000,4.000000,4.000000,4.000000,4.000000,4.000000,4.000000,4.000000,4.000000,4.000000,4.000000,4.000000,100.000000,,,,,,,,,,,,,,,,,,,,,,,,,,,,
1649271041.299219,1649271041.308849,114.000000,0.000000,4220.256348,4228.846191,4207.820313,4229.358887,4249.487305,4228.333496,4216.410156,4223.461426,4246.794922,4224.487305,4221.538574,4236.410156,4232.563965,4220.769043,3601.000000,1.000000,15.000000,,,,0.000000,4.000000,4.000000,4.000000,4.000000,4.000000,4.000000,4.000000,4.000000,4.000000,4.000000,4.000000,4.000000,4.000000,4.000000,100.000000,,,,,,,,,,,,,,,,,,,,,,,,,,,,
1649271041.307022,1649271041.316553,115.000000,0.000000,4217.179688,4227.948730,4198.333496,4230.128418,4238.589844,4230.384766,4219.102539,4225.256348,4247.820313,4231.410156,4219.743652,4227.692383,4230.641113,4215.897461,3595.000000,1.000000,15.000000,,,,0.000000,4.000000,4.000000,4.000000,4.000000,4.000000,4.000000,4.000000,4.000000,4.000000,4.000000,4.000000,4.000000,4.000000,4.000000,100.000000,,,,,,,,,,,,,,,,,,,,,,,,,,,,
1649271041.314824,1649271041.324258,116.000000,0.000000,4229.743652,4234.487305,4210.384766,4236.666504,4244.615234,4243.205078,4225.512695,4234.487305,4249.230957,4242.692383,4231.794922,4237.307617,4239.743652,4231.666504,3547.000000,1.000000,15.000000,,,,0.000000,4.000000,4.000000,4.000000,4.000000,4.000000,4.000000,4.000000,4.000000,4.000000,4.000000,4.000000,4.000000,4.000000,4.000000,100.000000,,,,,,,,,,,,,,,,,29.000000,0.000000,0.640576,-0.367371,-0.588074,-0.329956,1.006851,-0.047364,0.058595,-29.010452,-94.358742,-2.841230
1649271041.322627,1649271041.332062,117.000000,0.000000,4233.333496,4234.487305,4216.282227,4234.230957,4255.769043,4243.205078,4223.974121,4235.256348,4246.666504,4227.179688,4235.897461,4245.256348,4242.563965,4233.461426,3499.000000,1.000000,15.000000,,,,0.000000,4.000000,4.000000,4.000000,4.000000,4.000000,4.000000,4.000000,4.000000,4.000000,4.000000,4.000000,4.000000,4.000000,4.000000,100.000000,,,,,,,,,,,,,,,,,,,,,,,,,,,,
1649271041.330429,1649271041.339766,118.000000,0.000000,4225.128418,4232.179688,4206.153809,4232.820313,4247.820313,4230.256348,4212.948730,4226.025879,4242.820313,4210.000000,4227.051270,4235.641113,4229.871582,4219.743652,3601.000000,1.000000,15.000000,,,,0.000000,4.000000,4.000000,4.000000,4.000000,4.000000,4.000000,4.000000,4.000000,4.000000,4.000000,4.000000,4.000000,4.000000,4.000000,100.000000,,,,,,,,,,,,,,,,,,,,,,,,,,,,
1649271041.338231,1649271041.347570,119.000000,0.000000,4219.230957,4231.410156,4201.922852,4232.436035,4239.743652,4223.974121,4206.282227,4219.102539,4236.282227,4214.871582,4218.205078,4227.692383,4218.717773,4215.384766,3595.000000,1.000000,15.000000,,,,0.000000,4.000000,4.000000,4.000000,4.000000,4.000000,4.000000,4.000000,4.000000,4.000000,4.000000,4.000000,4.000000,4.000000,4.000000,100.000000,,,,,,,,,,,,,,,,,,,,,,,,,,,,
1649271041.346034,1649271041.355274,120.000000,0.000000,4212.436035,4218.333496,4196.538574,4220.256348,4234.358887,4221.282227,4207.563965,4221.025879,4237.948730,4225.512695,4210.128418,4225.000000,4215.256348,4212.563965,3547.000000,1.000000,15.000000,,,,0.000000,4.000000,4.000000,4.000000,4.000000,4.000000,4.000000,4.000000,4.000000,4.000000,4.000000,4.000000,4.000000,4.000000,4.000000,100.000000,,,,,,,,,,,,,,,,,30.000000,0.000000,0.640593,-0.368042,-0.587463,-0.330261,1.015152,-0.060548,0.045411,-28.262760,-93.910126,-2.542153
1649271041.353836,1649271041.363079,121.000000,0.000000,4217.563965,4215.769043,4196.282227,4218.717773,4228.589844,4223.205078,4215.512695,4232.820313,4250.512695,4235.256348,4218.333496,4228.717773,4225.512695,4216.666504,3499.000000,1.000000,15.000000,,,,0.000000,4.000000,4.000000,4.000000,4.000000,4.000000,4.000000,4.000000,4.000000,4.000000,4.000000,4.000000,4.000000,4.000000,4.000000,100.000000,,,,,,,,,,,,,,,,,,,,,,,,,,,,
1649271041.361638,1649271041.370783,122.000000,0.000000,4233.077148,4233.717773,4211.153809,4235.256348,4237.436035,4231.666504,4221.410156,4236.410156,4254.102539,4231.153809,4230.897461,4240.256348,4237.563965,4230.897461,3601.000000,1.000000,15.000000,,,,0.000000,4.000000,4.000000,4.000000,4.000000,4.000000,4.000000,4.000000,4.000000,4.000000,4.000000,4.000000,4.000000,4.000000,4.000000,100.000000,,,,,,,,,,,,,,,,,,,,,,,,,,,,
1649271041.369441,1649271041.378587,123.000000,0.000000,4236.922852,4238.589844,4220.128418,4240.000000,4248.205078,4231.282227,4217.820313,4228.589844,4250.384766,4237.820313,4230.512695,4245.512695,4232.051270,4235.641113,3595.000000,1.000000,15.000000,,,,0.000000,4.000000,4.000000,4.000000,4.000000,4.000000,4.000000,4.000000,4.000000,4.000000,4.000000,4.000000,4.000000,4.000000,4.000000,100.000000,,,,,,,,,,,,,,,,,,,,,,,,,,,,
1649271041.377243,1649271041.386291,124.000000,0.000000,4233.077148,4229.615234,4217.051270,4232.051270,4247.948730,4226.153809,4213.846191,4230.000000,4251.153809,4254.230957,4229.743652,4244.358887,4226.794922,4232.307617,3547.000000,1.000000,15.000000,,,,0.000000,4.000000,4.000000,4.000000,4.000000,4.000000,4.000000,4.000000,4.000000,4.000000,4.000000,4.000000,4.000000,4.000000,4.000000,100.000000,,,,,,,,,,,,,,,,,31.000000,0.000000,0.640693,-0.368591,-0.586975,-0.330322,1.008316,-0.052247,0.048829,-29.010452,-93.910126,-2.542153
1649271041.385045,1649271041.394095,125.000000,0.000000,4232.436035,4226.922852,4214.487305,4229.358887,4244.358887,4230.128418,4217.948730,4233.461426,4250.256348,4221.410156,4231.922852,4245.769043,4230.512695,4231.538574,3499.000000,1.000000,15.000000,,,,0.000000,4.000000,4.000000,4.000000,4.000000,4.000000,4.000000,4.000000,4.000000,4.000000,4.000000,4.000000,4.000000,4.000000,4.000000,100.000000,,,,,,,,,,,,,,,,,,,,,,,,,,,,
1649271041.392848,1649271041.401800,126.000000,0.000000,4241.794922,4232.820313,4224.358887,4236.025879,4245.128418,4233.589844,4227.051270,4232.179688,4245.128418,4194.230957,4237.820313,4248.717773,4235.000000,4236.794922,3601.000000,1.000000,15.000000,,,,0.000000,4.000000,4.000000,4.000000,4.000000,4.000000,4.000000,4.000000,4.000000,4.000000,4.000000,4.000000,4.000000,4.000000,4.000000,100.000000,,,,,,,,,,,,,,,,,,,,,,,,,,,,
1649271041.400650,1649271041.409604,127.000000,0.000000,4243.974121,4235.897461,4227.948730,4239.358887,4248.589844,4229.743652,4223.077148,4227.948730,4236.538574,4227.436035,4238.077148,4247.563965,4235.128418,4236.922852,52.000000,1.000000,15.000000,,,,0.000000,4.000000,4.000000,4.000000,4.000000,4.000000,4.000000,4.000000,4.000000,4.000000,4.000000,4.000000,4.000000,4.000000,4.000000,100.000000,,,,,,,,,,,,,,,,,,,,,,,,,,,,
1649271041.408453,1649271041.417308,0.000000,0.000000,4236.666504,4233.846191,4223.717773,4234.358887,4245.512695,4229.102539,4214.743652,4225.384766,4230.256348,4250.641113,4228.077148,4246.410156,4233.717773,4234.615234,3528.000000,1.000000,15.000000,,,,0.000000,4.000000,4.000000,4.000000,4.000000,4.000000,4.000000,4.000000,4.000000,4.000000,4.000000,4.000000,4.000000,4.000000,4.000000,100.000000,,,,,,,,,,,,,,,,,0.000000,0.000000,0.640765,-0.369019,-0.586731,-0.330139,1.012711,-0.044923,0.053223,-27.963684,-96.003662,-0.149538
1649271041.416255,1649271041.425112,1.000000,0.000000,4236.410156,4232.692383,4226.922852,4234.358887,4241.922852,4232.948730,4223.846191,4229.615234,4227.820313,4232.563965,4226.922852,4248.589844,4234.487305,4237.563965,3598.000000,1.000000,15.000000,,,,0.000000,4.000000,4.000000,4.000000,4.000000,4.000000,4.000000,4.000000,4.000000,4.000000,4.000000,4.000000,4.000000,4.000000,4.000000,100.000000,,,,,,,,,,,,,,,,,,,,,,,,,,,,
1649271041.424057,1649271041.432817,2.000000,0.000000,4240.000000,4235.384766,4228.205078,4239.871582,4249.615234,4234.230957,4231.025879,4234.487305,4220.256348,4226.794922,4232.307617,4246.794922,4233.077148,4239.358887,3531.000000,1.000000,15.000000,,,,0.000000,4.000000,4.000000,4.000000,4.000000,4.000000,4.000000,4.000000,4.000000,4.000000,4.000000,4.000000,4.000000,4.000000,4.000000,100.000000,,,,,,,,,,,,,,,,,,,,,,,,,,,,
1649271041.431860,1649271041.440621,3.000000,0.000000,4235.128418,4236.282227,4220.000000,4238.589844,4256.282227,4233.974121,4224.871582,4229.615234,4217.948730,4235.384766,4225.000000,4241.794922,4228.974121,4233.589844,3591.000000,1.000000,15.000000,,,,0.000000,4.000000,4.000000,4.000000,4.000000,4.000000,4.000000,4.000000,4.000000,4.000000,4.000000,4.000000,4.000000,4.000000,4.000000,100.000000,,,,,,,,,,,,,,,,,,,,,,,,,,,,
1649271041.439662,1649271041.448325,4.000000,0.000000,4228.461426,4232.179688,4215.000000,4231.410156,4251.538574,4237.307617,4226.025879,4228.974121,4231.282227,4228.333496,4217.692383,4240.000000,4228.077148,4229.230957,3629.000000,1.000000,15.000000,,,,0.000000,4.000000,4.000000,4.000000,4.000000,4.000000,4.000000,4.000000,4.000000,4.000000,4.000000,4.000000,4.000000,4.000000,4.000000,100.000000,,,,,,,,,,,,,,,,,1.000000,0.000000,0.640936,-0.369202,-0.586670,-0.329712,0.999039,-0.048341,0.049805,-28.711376,-93.760590,-0.897231
1649271041.447464,1649271041.456129,5.000000,0.000000,4230.000000,4232.820313,4219.358887,4234.230957,4247.820313,4236.282227,4232.179688,4240.641113,4234.230957,4230.128418,4229.358887,4244.230957,4232.820313,4232.051270,3595.000000,1.000000,15.000000,,,,0.000000,4.000000,4.000000,4.000000,4.000000,4.000000,4.000000,4.000000,4.000000,4.000000,4.000000,4.000000,4.000000,4.000000,4.000000,100.000000,,,,,,,,,,,,,,,,,,,,,,,,,,,,
1649271041.455267,1649271041.463833,6.000000,0.000000,4231.282227,4238.589844,4217.820313,4242.307617,4250.512695,4233.205078,4229.487305,4239.487305,4221.922852,4231.538574,4232.179688,4243.589844,4231.153809,4232.179688,3561.000000,1.000000,15.000000,,,,0.000000,4.000000,4.000000,4.000000,4.000000,4.000000,4.000000,4.000000,4.000000,4.000000,4.000000,4.000000,4.000000,4.000000,4.000000,100.000000,,,,,,,,,,,,,,,,,,,,,,,,,,,,
1649271041.463069,1649271041.471638,7.000000,0.000000,4228.333496,4238.846191,4214.871582,4240.384766,4255.512695,4239.230957,4225.512695,4228.589844,4226.282227,4219.230957,4221.025879,4235.897461,4229.487305,4229.487305,3599.000000,1.000000,15.000000,,,,0.000000,4.000000,4.000000,4.000000,4.000000,4.000000,4.000000,4.000000,4.000000,4.000000,4.000000,4.000000,4.000000,4.000000,4.000000,100.000000,,,,,,,,,,,,,,,,,,,,,,,,,,,,
1649271041.470871,1649271041.479442,8.000000,0.000000,4220.256348,4226.025879,4212.692383,4228.461426,4258.974121,4246.410156,4225.256348,4230.897461,4238.205078,4225.641113,4220.641113,4233.846191,4230.256348,4224.487305,1629.000000,1.000000,15.000000,,,,0.000000,4.000000,4.000000,4.000000,4.000000,4.000000,4.000000,4.000000,4.000000,4.000000,4.000000,4.000000,4.000000,4.000000,4.000000,100.000000,1.000000,100.000000,4.000000,4.000000,4.000000,4.000000,4.000000,4.000000,4.000000,4.000000,4.000000,4.000000,4.000000,4.000000,4.000000,4.000000,2.000000,0.000000,0.641023,-0.369141,-0.586853,-0.329285,1.000992,-0.041993,0.041993,-27.963684,-94.209198,-1.196307
1649271041.478674,1649271041.487246,9.000000,0.000000,4213.717773,4213.589844,4206.794922,4219.743652,4251.025879,4241.794922,4227.179688,4235.256348,4229.358887,4240.769043,4224.102539,4234.871582,4221.666504,4217.820313,3607.000000,1.000000,15.000000,,,,0.000000,4.000000,4.000000,4.000000,4.000000,4.000000,4.000000,4.000000,4.000000,4.000000,4.000000,4.000000,4.000000,4.000000,4.000000,100.000000,,,,,,,,,,,,,,,,,,,,,,,,,,,,
1649271041.486476,1649271041.495051,10.000000,0.000000,4221.282227,4223.461426,4208.205078,4228.717773,4245.256348,4239.743652,4234.487305,4238.461426,4217.436035,4240.000000,4225.384766,4232.820313,4220.128418,4221.282227,3597.000000,1.000000,15.000000,,,,0.000000,4.000000,4.000000,4.000000,4.000000,4.000000,4.000000,4.000000,4.000000,4.000000,4.000000,4.000000,4.000000,4.000000,4.000000,100.000000,,,,,,,,,,,,,,,,,,,,,,,,,,,,
1649271041.494279,1649271041.502955,11.000000,0.000000,4231.922852,4242.051270,4216.025879,4244.102539,4255.641113,4244.358887,4236.666504,4246.153809,4216.922852,4236.410156,4232.307617,4237.820313,4233.205078,4231.794922,3592.000000,1.000000,15.000000,,,,0.000000,4.000000,4.000000,4.000000,4.000000,4.000000,4.000000,4.000000,4.000000,4.000000,4.000000,4.000000,4.000000,4.000000,4.000000,100.000000,,,,,,,,,,,,,,,,,,,,,,,,,,,,
1649271041.502081,1649271041.510859,12.000000,0.000000,4233.461426,4246.794922,4222.820313,4250.128418,4262.692383,4243.846191,4231.282227,4242.820313,4218.974121,4228.205078,4231.153809,4248.077148,4234.615234,4236.538574,3541.000000,1.000000,15.000000,,,,0.000000,4.000000,4.000000,4.000000,4.000000,4.000000,4.000000,4.000000,4.000000,4.000000,4.000000,4.000000,4.000000,4.000000,4.000000,100.000000,,,,,,,,,,,,,,,,,3.000000,0.000000,0.641148,-0.369080,-0.587097,-0.328674,0.998550,-0.041993,0.047364,-26.767376,-94.508278,-1.196307
1649271041.509883,1649271041.518663,13.000000,0.000000,4230.128418,4243.974121,4220.641113,4247.307617,4261.153809,4240.512695,4229.230957,4231.410156,4222.692383,4216.538574,4218.077148,4248.461426,4217.051270,4232.179688,3496.000000,1.000000,15.000000,,,,0.000000,4.000000,4.000000,4.000000,4.000000,4.000000,4.000000,4.000000,4.000000,4.000000,4.000000,4.000000,4.000000,4.000000,4.000000,100.000000,,,,,,,,,,,,,,,,,,,,,,,,,,,,
1649271041.517686,1649271041.526468,14.000000,0.000000,4232.436035,4246.282227,4218.589844,4247.692383,4262.051270,4240.897461,4231.410156,4238.846191,4228.717773,4229.615234,4219.487305,4244.615234,4213.717773,4233.717773,3597.000000,1.000000,15.000000,,,,0.000000,4.000000,4.000000,4.000000,4.000000,4.000000,4.000000,4.000000,4.000000,4.000000,4.000000,4.000000,4.000000,4.000000,4.000000,100.000000,,,,,,,,,,,,,,,,,,,,,,,,,,,,
1649271041.525488,1649271041.534172,15.000000,0.000000,4235.641113,4246.922852,4225.769043,4250.128418,4262.436035,4244.487305,4234.487305,4251.666504,4237.307617,4238.333496,4234.358887,4247.051270,4227.436035,4240.769043,3592.000000,1.000000,15.000000,,,,0.000000,4.000000,4.000000,4.000000,4.000000,4.000000,4.000000,4.000000,4.000000,4.000000,4.000000,4.000000,4.000000,4.000000,4.000000,100.000000,,,,,,,,,,,,,,,,,,,,,,,,,,,,
1649271041.533290,1649271041.542076,16.000000,0.000000,4231.666504,4242.820313,4228.333496,4246.538574,4262.436035,4245.641113,4236.282227,4245.641113,4248.974121,4217.820313,4233.717773,4248.461426,4227.051270,4237.563965,0.000000,1.000000,15.000000,,,,0.000000,4.000000,4.000000,4.000000,4.000000,4.000000,4.000000,4.000000,4.000000,4.000000,4.000000,4.000000,4.000000,4.000000,4.000000,100.000000,,,,,,,,,,,,,,,,,4.000000,0.000000,0.641393,-0.369263,-0.587158,-0.327881,1.002457,-0.052735,0.041993,-27.664606,-94.807358,-2.691691
1649271041.541093,1649271041.549881,17.000000,0.000000,4227.563965,4244.487305,4221.922852,4246.153809,4263.974121,4244.102539,4230.769043,4229.615234,4250.128418,4211.153809,4226.025879,4247.436035,4219.230957,4231.282227,0.000000,1.000000,15.000000,,,,0.000000,4.000000,4.000000,4.000000,4.000000,4.000000,4.000000,4.000000,4.000000,4.000000,4.000000,4.000000,4.000000,4.000000,4.000000,100.000000,,,,,,,,,,,,,,,,,,,,,,,,,,,,
1649271041.548895,1649271041.557685,18.000000,0.000000,4224.743652,4245.897461,4215.641113,4248.077148,4262.179688,4244.230957,4227.692383,4223.461426,4235.000000,4217.563965,4218.717773,4239.102539,4214.743652,4229.487305,0.000000,1.000000,15.000000,,,,0.000000,4.000000,4.000000,4.000000,4.000000,4.000000,4.000000,4.000000,4.000000,4.000000,4.000000,4.000000,4.000000,4.000000,4.000000,100.000000,,,,,,,,,,,,,,,,,,,,,,,,,,,,
1649271041.556697,1649271041.565389,19.000000,0.000000,4224.230957,4244.487305,4215.256348,4247.307617,4260.256348,4249.230957,4241.538574,4236.282227,4230.256348,4220.897461,4213.717773,4229.871582,4216.025879,4229.871582,0.000000,1.000000,15.000000,,,,0.000000,4.000000,4.000000,4.000000,4.000000,4.000000,4.000000,4.000000,4.000000,4.000000,4.000000,4.000000,4.000000,4.000000,4.000000,100.000000,,,,,,,,,,,,,,,,,,,,,,,,,,,,
1649271041.564500,1649271041.573294,20.000000,0.000000,4229.487305,4244.230957,4216.666504,4247.820313,4265.000000,4250.384766,4247.051270,4246.025879,4238.205078,4225.897461,4221.025879,4236.794922,4224.487305,4231.282227,0.000000,1.000000,15.000000,,,,0.000000,4.000000,4.000000,4.000000,4.000000,4.000000,4.000000,4.000000,4.000000,4.000000,4.000000,4.000000,4.000000,4.000000,4.000000,100.000000,,,,,,,,,,,,,,,,,5.000000,0.000000,0.641595,-0.369507,-0.587463,-0.326660,1.009293,-0.061036,0.048341,-27.814146,-94.358742,-1.345846
1649271041.572302,1649271041.581098,21.000000,0.000000,4234.230957,4245.769043,4220.769043,4249.743652,4267.948730,4245.384766,4235.897461,4234.230957,4229.871582,4217.436035,4230.897461,4247.692383,4233.717773,4235.256348,0.000000,1.000000,15.000000,,,,0.000000,4.000000,4.000000,4.000000,4.000000,4.000000,4.000000,4.000000,4.000000,4.000000,4.000000,4.000000,4.000000,4.000000,4.000000,100.000000,,,,,,,,,,,,,,,,,,,,,,,,,,,,
1649271041.580104,1649271041.588903,22.000000,0.000000,4231.794922,4246.153809,4223.333496,4248.077148,4264.615234,4245.384766,4236.410156,4227.948730,4219.743652,4207.307617,4227.820313,4242.692383,4228.974121,4234.743652,0.000000,1.000000,15.000000,,,,0.000000,4.000000,4.000000,4.000000,4.000000,4.000000,4.000000,4.000000,4.000000,4.000000,4.000000,4.000000,4.000000,4.000000,4.000000,100.000000,,,,,,,,,,,,,,,,,,,,,,,,,,,,
1649271041.587907,1649271041.596607,23.000000,0.000000,4227.307617,4242.948730,4219.102539,4243.461426,4262.692383,4246.410156,4243.333496,4240.769043,4226.410156,4221.666504,4217.820313,4235.000000,4216.666504,4230.256348,0.000000,1.000000,15.000000,,,,0.000000,4.000000,4.000000,4.000000,4.000000,4.000000,4.000000,4.000000,4.000000,4.000000,4.000000,4.000000,4.000000,4.000000,4.000000,100.000000,,,,,,,,,,,,,,,,,,,,,,,,,,,,
1649271041.595709,1649271041.604511,24.000000,0.000000,4227.307617,4242.563965,4217.307617,4242.563965,4264.102539,4247.307617,4243.717773,4250.128418,4232.563965,4235.128418,4215.769043,4234.871582,4219.358887,4230.000000,0.000000,1.000000,15.000000,,,,0.000000,4.000000,4.000000,4.000000,4.000000,4.000000,4.000000,4.000000,4.000000,4.000000,4.000000,4.000000,4.000000,4.000000,4.000000,100.000000,,,,,,,,,,,,,,,,,6.000000,0.000000,0.641668,-0.369629,-0.587646,-0.326050,1.007340,-0.072267,0.042969,-27.963684,-93.760590,-2.243076
1649271041.603511,1649271041.612315,25.000000,0.000000,4229.615234,4245.897461,4217.436035,4245.641113,4263.717773,4252.692383,4245.128418,4248.589844,4234.230957,4232.307617,4217.051270,4235.256348,4229.743652,4231.153809,0.000000,1.000000,15.000000,,,,0.000000,4.000000,4.000000,4.000000,4.000000,4.000000,4.000000,4.000000,4.000000,4.000000,4.000000,4.000000,4.000000,4.000000,4.000000,100.000000,,,,,,,,,,,,,,,,,,,,,,,,,,,,
1649271041.611314,1649271041.620120,26.000000,0.000000,4230.641113,4248.077148,4219.615234,4247.563965,4264.743652,4262.948730,4247.948730,4247.692383,4239.102539,4233.589844,4218.077148,4237.692383,4234.743652,4233.589844,0.000000,1.000000,15.000000,,,,0.000000,4.000000,4.000000,4.000000,4.000000,4.000000,4.000000,4.000000,4.000000,4.000000,4.000000,4.000000,4.000000,4.000000,4.000000,100.000000,,,,,,,,,,,,,,,,,,,,,,,,,,,,
1649271041.619116,1649271041.627824,27.000000,0.000000,4230.128418,4247.307617,4222.820313,4246.922852,4266.538574,4266.794922,4247.820313,4249.487305,4233.846191,4230.384766,4221.666504,4243.589844,4233.589844,4234.871582,0.000000,1.000000,15.000000,,,,0.000000,4.000000,4.000000,4.000000,4.000000,4.000000,4.000000,4.000000,4.000000,4.000000,4.000000,4.000000,4.000000,4.000000,4.000000,100.000000,,,,,,,,,,,,,,,,,,,,,,,,,,,,
1649271041.626918,1649271041.635728,28.000000,0.000000,4233.333496,4247.692383,4223.717773,4248.205078,4262.820313,4256.922852,4247.051270,4253.974121,4233.846191,4226.282227,4224.871582,4247.307617,4233.717773,4236.666504,0.000000,1.000000,15.000000,,,,0.000000,4.000000,4.000000,4.000000,4.000000,4.000000,4.000000,4.000000,4.000000,4.000000,4.000000,4.000000,4.000000,4.000000,4.000000,100.000000,,,,,,,,,,,,,,,,,7.000000,0.000000,0.642032,-0.369629,-0.587891,-0.324890,1.012223,-0.080568,0.042481,-28.262760,-93.910126,-1.794461
1649271041.634721,1649271041.643533,29.000000,0.000000,4231.538574,4244.743652,4220.384766,4245.769043,4260.512695,4246.922852,4235.512695,4245.384766,4252.692383,4232.307617,4222.948730,4242.820313,4231.153809,4236.410156,0.000000,1.000000,15.000000,,,,0.000000,4.000000,4.000000,4.000000,4.000000,4.000000,4.000000,4.000000,4.000000,4.000000,4.000000,4.000000,4.000000,4.000000,4.000000,100.000000,,,,,,,,,,,,,,,,,,,,,,,,,,,,
1649271041.642523,1649271041.651337,30.000000,0.000000,4215.897461,4234.230957,4211.410156,4233.589844,4263.846191,4241.922852,4217.436035,4219.487305,4246.153809,4218.974121,4211.538574,4229.615234,4216.153809,4225.256348,0.000000,1.000000,15.000000,,,,0.000000,4.000000,4.000000,4.000000,4.000000,4.000000,4.000000,4.000000,4.000000,4.000000,4.000000,4.000000,4.000000,4.000000,4.000000,100.000000,,,,,,,,,,,,,,,,,,,,,,,,,,,,
1649271041.650326,1649271041.659041,31.000000,0.000000,4212.436035,4233.974121,4208.846191,4231.794922,4264.871582,4235.384766,4216.538574,4213.846191,4217.179688,4193.846191,4206.025879,4228.077148,4212.692383,4219.743652,0.000000,1.000000,15.000000,,,,0.000000,4.000000,4.000000,4.000000,4.000000,4.000000,4.000000,4.000000,4.000000,4.000000,4.000000,4.000000,4.000000,4.000000,4.000000,100.000000,,,,,,,,,,,,,,,,,,,,,,,,,,,,
1649271041.658128,1649271041.666946,32.000000,0.000000,4224.743652,4245.384766,4218.846191,4243.333496,4261.025879,4236.025879,4228.846191,4234.743652,4219.102539,4205.256348,4217.436035,4240.256348,4229.102539,4231.922852,0.000000,1.000000,15.000000,,,,0.000000,4.000000,4.000000,4.000000,4.000000,4.000000,4.000000,4.000000,4.000000,4.000000,4.000000,4.000000,4.000000,4.000000,4.000000,100.000000,,,,,,,,,,,,,,,,,8.000000,0.000000,0.642175,-0.369690,-0.588135,-0.324097,1.013687,-0.086915,0.025879,-28.561836,-94.358742,-2.093538
1649271041.665930,1649271041.674750,33.000000,0.000000,4222.820313,4243.077148,4219.487305,4240.641113,4258.205078,4240.769043,4234.487305,4240.256348,4237.692383,4224.487305,4220.128418,4241.025879,4232.051270,4234.230957,0.000000,1.000000,15.000000,,,,0.000000,4.000000,4.000000,4.000000,4.000000,4.000000,4.000000,4.000000,4.000000,4.000000,4.000000,4.000000,4.000000,4.000000,4.000000,100.000000,,,,,,,,,,,,,,,,,,,,,,,,,,,,
1649271041.673733,1649271041.682454,34.000000,0.000000,4209.743652,4231.538574,4204.358887,4228.846191,4259.743652,4238.974121,4229.358887,4225.384766,4232.051270,4211.538574,4202.307617,4226.538574,4209.871582,4216.282227,0.000000,1.000000,15.000000,,,,0.000000,4.000000,4.000000,4.000000,4.000000,4.000000,4.000000,4.000000,4.000000,4.000000,4.000000,4.000000,4.000000,4.000000,4.000000,100.000000,,,,,,,,,,,,,,,,,,,,,,,,,,,,
1649271041.681535,1649271041.690258,35.000000,0.000000,4211.666504,4235.897461,4203.589844,4235.000000,4262.307617,4241.025879,4234.230957,4231.153809,4228.205078,4215.256348,4200.641113,4226.538574,4205.128418,4212.820313,0.000000,1.000000,15.000000,,,,0.000000,4.000000,4.000000,4.000000,4.000000,4.000000,4.000000,4.000000,4.000000,4.000000,4.000000,4.000000,4.000000,4.000000,4.000000,100.000000,,,,,,,,,,,,,,,,,,,,,,,,,,,,
1649271041.689337,1649271041.697962,36.000000,0.000000,4219.615234,4247.436035,4218.077148,4245.641113,4259.743652,4249.230957,4249.230957,4254.358887,4242.051270,4243.846191,4219.615234,4238.974121,4226.153809,4227.820313,0.000000,1.000000,15.000000,,,,0.000000,4.000000,4.000000,4.000000,4.000000,4.000000,4.000000,4.000000,4.000000,4.000000,4.000000,4.000000,4.000000,4.000000,4.000000,100.000000,,,,,,,,,,,,,,,,,9.000000,0.000000,0.642306,-0.369812,-0.588318,-0.323364,1.011246,-0.075196,0.040528,-27.963684,-94.508278,-2.691691
1649271041.697140,1649271041.705766,37.000000,0.000000,4219.358887,4247.948730,4219.358887,4245.384766,4257.692383,4247.820313,4244.487305,4251.153809,4245.128418,4240.769043,4222.820313,4238.461426,4234.615234,4232.820313,0.000000,1.000000,15.000000,,,,0.000000,4.000000,4.000000,4.000000,4.000000,4.000000,4.000000,4.000000,4.000000,4.000000,4.000000,4.000000,4.000000,4.000000,4.000000,100.000000,,,,,,,,,,,,,,,,,,,,,,,,,,,,
1649271041.704942,1649271041.713471,38.000000,0.000000,4217.051270,4246.410156,4212.563965,4245.256348,4261.538574,4242.692383,4228.846191,4230.769043,4240.384766,4219.358887,4214.230957,4230.641113,4226.794922,4226.922852,0.000000,1.000000,15.000000,,,,0.000000,4.000000,4.000000,4.000000,4.000000,4.000000,4.000000,4.000000,4.000000,4.000000,4.000000,4.000000,4.000000,4.000000,4.000000,100.000000,,,,,,,,,,,,,,,,,,,,,,,,,,,,
1649271041.712744,1649271041.721275,39.000000,0.000000,4216.794922,4248.077148,4212.436035,4244.743652,4262.563965,4240.128418,4229.871582,4230.641113,4242.051270,4223.974121,4216.538574,4230.256348,4227.307617,4220.897461,0.000000,1.000000,15.000000,,,,0.000000,4.000000,4.000000,4.000000,4.000000,4.000000,4.000000,4.000000,4.000000,4.000000,4.000000,4.000000,4.000000,4.000000,4.000000,100.000000,,,,,,,,,,,,,,,,,,,,,,,,,,,,
1649271041.720547,1649271041.728979,40.000000,0.000000,4215.384766,4247.948730,4214.615234,4242.692383,4261.666504,4235.512695,4237.051270,4238.077148,4238.461426,4234.487305,4220.000000,4230.897461,4234.102539,4218.846191,0.000000,1.000000,15.000000,,,,0.000000,4.000000,4.000000,4.000000,4.000000,4.000000,4.000000,4.000000,4.000000,4.000000,4.000000,4.000000,4.000000,4.000000,4.000000,100.000000,,,,,,,,,,,,,,,,,10.000000,0.000000,0.642136,-0.370117,-0.588379,-0.323242,0.996597,-0.089845,0.043458,-27.215992,-93.760590,-2.691691
1649271041.728349,1649271041.736783,41.000000,0.000000,4216.153809,4246.666504,4213.717773,4247.820313,4266.282227,4237.307617,4232.820313,4229.871582,4231.794922,4223.205078,4214.615234,4231.025879,4233.589844,4221.666504,0.000000,1.000000,15.000000,,,,0.000000,4.000000,4.000000,4.000000,4.000000,4.000000,4.000000,4.000000,4.000000,4.000000,4.000000,4.000000,4.000000,4.000000,4.000000,100.000000,,,,,,,,,,,,,,,,,,,,,,,,,,,,
1649271041.736152,1649271041.744488,42.000000,0.000000,4221.794922,4250.641113,4217.307617,4251.282227,4266.025879,4248.205078,4231.282227,4233.717773,4241.794922,4226.922852,4220.256348,4238.717773,4235.769043,4231.282227,0.000000,1.000000,15.000000,,,,0.000000,4.000000,4.000000,4.000000,4.000000,4.000000,4.000000,4.000000,4.000000,4.000000,4.000000,4.000000,4.000000,4.000000,4.000000,100.000000,,,,,,,,,,,,,,,,,,,,,,,,,,,,
1649271041.743954,1649271041.752292,43.000000,0.000000,4225.000000,4258.205078,4221.922852,4249.871582,4260.384766,4249.487305,4237.563965,4250.897461,4254.615234,4245.641113,4232.436035,4242.307617,4241.538574,4234.102539,0.000000,1.000000,15.000000,,,,0.000000,4.000000,4.000000,4.000000,4.000000,4.000000,4.000000,4.000000,4.000000,4.000000,4.000000,4.000000,4.000000,4.000000,4.000000,100.000000,,,,,,,,,,,,,,,,,,,,,,,,,,,,
1649271041.751756,1649271041.759996,44.000000,0.000000,4216.538574,4260.769043,4214.871582,4254.102539,4269.743652,4239.358887,4233.717773,4241.666504,4252.948730,4227.179688,4224.487305,4231.153809,4233.974121,4221.282227,0.000000,1.000000,15.000000,,,,0.000000,4.000000,4.000000,4.000000,4.000000,4.000000,4.000000,4.000000,4.000000,4.000000,4.000000,4.000000,4.000000,4.000000,4.000000,100.000000,,,,,,,,,,,,,,,,,11.000000,0.000000,0.641792,-0.370605,-0.588379,-0.323364,1.005386,-0.084962,0.030274,-26.019684,-94.508278,-1.644923
1649271041.759559,1649271041.767800,45.000000,0.000000,4213.846191,4261.153809,4211.025879,4259.871582,4279.102539,4237.820313,4226.794922,4226.794922,4249.743652,4202.307617,4213.589844,4228.205078,4223.205078,4217.563965,0.000000,1.000000,15.000000,,,,0.000000,4.000000,4.000000,4.000000,4.000000,4.000000,4.000000,4.000000,4.000000,4.000000,4.000000,4.000000,4.000000,4.000000,4.000000,100.000000,,,,,,,,,,,,,,,,,,,,,,,,,,,,
1649271041.767361,1649271041.775504,46.000000,0.000000,4225.641113,4266.153809,4225.000000,4262.051270,4269.615234,4247.051270,4236.794922,4238.205078,4242.563965,4217.563965,4225.512695,4237.051270,4232.179688,4230.512695,0.000000,1.000000,15.000000,,,,0.000000,4.000000,4.000000,4.000000,4.000000,4.000000,4.000000,4.000000,4.000000,4.000000,4.000000,4.000000,4.000000,4.000000,4.000000,100.000000,,,,,,,,,,,,,,,,,,,,,,,,,,,,
1649271041.775163,1649271041.783309,47.000000,0.000000,4229.230957,4265.641113,4232.948730,4261.538574,4259.102539,4251.410156,4250.000000,4250.769043,4231.025879,4234.743652,4236.666504,4238.717773,4244.615234,4234.358887,0.000000,1.000000,15.000000,,,,0.000000,4.000000,4.000000,4.000000,4.000000,4.000000,4.000000,4.000000,4.000000,4.000000,4.000000,4.000000,4.000000,4.000000,4.000000,100.000000,,,,,,,,,,,,,,,,,,,,,,,,,,,,
1649271041.782966,1649271041.791013,48.000000,0.000000,4223.974121,4260.000000,4226.025879,4260.384766,4268.205078,4247.692383,4243.077148,4248.974121,4226.282227,4236.794922,4230.128418,4234.487305,4236.025879,4228.333496,0.000000,1.000000,15.000000,,,,0.000000,4.000000,4.000000,4.000000,4.000000,4.000000,4.000000,4.000000,4.000000,4.000000,4.000000,4.000000,4.000000,4.000000,4.000000,100.000000,,,,,,,,,,,,,,,,,12.000000,0.000000,0.641431,-0.370911,-0.588379,-0.323730,1.015640,-0.079103,0.027344,-28.412298,-94.508278,-1.943999
1649271041.790768,1649271041.798817,49.000000,0.000000,4227.563965,4264.358887,4227.692383,4262.820313,4276.410156,4241.794922,4230.128418,4243.461426,4223.461426,4243.589844,4226.025879,4235.769043,4230.897461,4231.410156,0.000000,1.000000,15.000000,,,,0.000000,4.000000,4.000000,4.000000,4.000000,4.000000,4.000000,4.000000,4.000000,4.000000,4.000000,4.000000,4.000000,4.000000,4.000000,100.000000,,,,,,,,,,,,,,,,,,,,,,,,,,,,
1649271041.798570,1649271041.806521,50.000000,0.000000,4233.077148,4267.692383,4232.563965,4265.128418,4268.205078,4243.461426,4229.615234,4235.384766,4210.256348,4246.666504,4230.641113,4237.563965,4240.769043,4234.615234,0.000000,1.000000,15.000000,,,,0.000000,4.000000,4.000000,4.000000,4.000000,4.000000,4.000000,4.000000,4.000000,4.000000,4.000000,4.000000,4.000000,4.000000,4.000000,100.000000,,,,,,,,,,,,,,,,,,,,,,,,,,,,
1649271041.806373,1649271041.814426,51.000000,0.000000,4224.358887,4255.384766,4221.410156,4254.230957,4267.307617,4243.077148,4228.589844,4227.820313,4198.205078,4238.846191,4229.102539,4233.846191,4238.461426,4227.948730,0.000000,1.000000,15.000000,,,,0.000000,4.000000,4.000000,4.000000,4.000000,4.000000,4.000000,4.000000,4.000000,4.000000,4.000000,4.000000,4.000000,4.000000,4.000000,100.000000,,,,,,,,,,,,,,,,,,,,,,,,,,,,
1649271041.814175,1649271041.822330,52.000000,0.000000,4218.333496,4249.615234,4215.769043,4246.538574,4277.563965,4237.820313,4227.051270,4230.512695,4197.948730,4227.692383,4229.487305,4235.769043,4230.641113,4228.333496,0.000000,1.000000,15.000000,,,,0.000000,4.000000,4.000000,4.000000,4.000000,4.000000,4.000000,4.000000,4.000000,4.000000,4.000000,4.000000,4.000000,4.000000,4.000000,100.000000,,,,,,,,,,,,,,,,,13.000000,0.000000,0.641050,-0.370605,-0.588684,-0.324280,1.003922,-0.068360,0.029297,-27.664606,-95.255974,-1.644923
1649271041.821978,1649271041.830134,53.000000,0.000000,4222.051270,4261.922852,4226.666504,4258.205078,4280.512695,4240.897461,4230.128418,4232.436035,4195.512695,4219.743652,4231.410156,4240.769043,4235.897461,4233.846191,0.000000,1.000000,15.000000,,,,0.000000,4.000000,4.000000,4.000000,4.000000,4.000000,4.000000,4.000000,4.000000,4.000000,4.000000,4.000000,4.000000,4.000000,4.000000,100.000000,,,,,,,,,,,,,,,,,,,,,,,,,,,,
1649271041.829780,1649271041.837939,54.000000,0.000000,4221.922852,4264.743652,4227.948730,4261.153809,4276.153809,4247.307617,4231.922852,4231.922852,4190.384766,4230.256348,4222.563965,4235.769043,4234.743652,4229.871582,0.000000,1.000000,15.000000,,,,0.000000,4.000000,4.000000,4.000000,4.000000,4.000000,4.000000,4.000000,4.000000,4.000000,4.000000,4.000000,4.000000,4.000000,4.000000,100.000000,,,,,,,,,,,,,,,,,,,,,,,,,,,,
1649271041.837582,1649271041.845843,55.000000,0.000000,4221.922852,4255.512695,4219.871582,4251.538574,4278.077148,4247.820313,4235.769043,4239.615234,4198.205078,4251.666504,4222.948730,4231.282227,4232.563965,4227.307617,0.000000,1.000000,15.000000,,,,0.000000,4.000000,4.000000,4.000000,4.000000,4.000000,4.000000,4.000000,4.000000,4.000000,4.000000,4.000000,4.000000,4.000000,4.000000,100.000000,,,,,,,,,,,,,,,,,,,,,,,,,,,,
1649271041.845384,1649271041.853647,56.000000,0.000000,4220.897461,4248.589844,4217.436035,4247.179688,4278.077148,4256.538574,4248.461426,4249.743652,4214.487305,4249.615234,4229.102539,4233.205078,4241.538574,4228.205078,0.000000,1.000000,15.000000,,,,0.000000,4.000000,4.000000,4.000000,4.000000,4.000000,4.000000,4.000000,4.000000,4.000000,4.000000,4.000000,4.000000,4.000000,4.000000,100.000000,,,,,,,,,,,,,,,,,14.000000,0.000000,0.640881,-0.370544,-0.588806,-0.324463,1.009293,-0.060060,0.028321,-29.010452,-93.611046,-3.289845
1649271041.853187,1649271041.861551,57.000000,0.000000,4216.153809,4245.128418,4218.846191,4244.743652,4276.794922,4265.897461,4253.846191,4254.871582,4216.153809,4235.256348,4228.077148,4233.461426,4240.641113,4225.641113,0.000000,1.000000,15.000000,,,,0.000000,4.000000,4.000000,4.000000,4.000000,4.000000,4.000000,4.000000,4.000000,4.000000,4.000000,4.000000,4.000000,4.000000,4.000000,100.000000,,,,,,,,,,,,,,,,,,,,,,,,,,,,
1649271041.860989,1649271041.869355,58.000000,0.000000,4218.461426,4254.615234,4221.538574,4250.384766,4280.384766,4254.230957,4239.230957,4247.307617,4205.000000,4231.666504,4220.641113,4229.487305,4226.794922,4224.871582,0.000000,1.000000,15.000000,,,,0.000000,4.000000,4.000000,4.000000,4.000000,4.000000,4.000000,4.000000,4.000000,4.000000,4.000000,4.000000,4.000000,4.000000,4.000000,100.000000,,,,,,,,,,,,,,,,,,,,,,,,,,,,
1649271041.868791,1649271041.877160,59.000000,0.000000,4228.974121,4264.358887,4227.436035,4260.512695,4274.487305,4246.922852,4236.666504,4245.641113,4199.230957,4229.102539,4218.205078,4229.871582,4226.922852,4231.410156,0.000000,1.000000,15.000000,,,,0.000000,4.000000,4.000000,4.000000,4.000000,4.000000,4.000000,4.000000,4.000000,4.000000,4.000000,4.000000,4.000000,4.000000,4.000000,100.000000,,,,,,,,,,,,,,,,,,,,,,,,,,,,
1649271041.876594,1649271041.884864,60.000000,0.000000,4234.230957,4254.358887,4233.461426,4256.153809,4268.333496,4248.846191,4247.436035,4259.230957,4207.307617,4233.717773,4230.000000,4242.307617,4247.051270,4237.563965,0.000000,1.000000,15.000000,,,,0.000000,4.000000,4.000000,4.000000,4.000000,4.000000,4.000000,4.000000,4.000000,4.000000,4.000000,4.000000,4.000000,4.000000,4.000000,100.000000,,,,,,,,,,,,,,,,,15.000000,0.000000,0.640756,-0.370361,-0.588989,-0.324585,1.002945,-0.070802,0.021485,-27.066454,-94.657814,-3.289845
1649271041.884396,1649271041.892768,61.000000,0.000000,4234.615234,4251.282227,4235.512695,4253.333496,4275.384766,4239.102539,4242.307617,4256.153809,4222.948730,4244.102539,4233.589844,4247.948730,4254.615234,4237.563965,0.000000,1.000000,15.000000,,,,0.000000,4.000000,4.000000,4.000000,4.000000,4.000000,4.000000,4.000000,4.000000,4.000000,4.000000,4.000000,4.000000,4.000000,4.000000,100.000000,,,,,,,,,,,,,,,,,,,,,,,,,,,,
1649271041.892199,1649271041.900572,62.000000,0.000000,4232.436035,4263.846191,4232.307617,4262.563965,4280.897461,4233.205078,4227.436035,4232.563965,4232.436035,4240.384766,4217.820313,4236.025879,4233.846191,4234.358887,0.000000,1.000000,15.000000,,,,0.000000,4.000000,4.000000,4.000000,4.000000,4.000000,4.000000,4.000000,4.000000,4.000000,4.000000,4.000000,4.000000,4.000000,4.000000,100.000000,,,,,,,,,,,,,,,,,,,,,,,,,,,,
1649271041.900001,1649271041.908276,63.000000,0.000000,4228.589844,4259.102539,4228.333496,4258.077148,4275.128418,4240.384766,4227.948730,4225.512695,4233.974121,4228.846191,4215.256348,4232.307617,4217.563965,4230.897461,0.000000,1.000000,15.000000,,,,0.000000,4.000000,4.000000,4.000000,4.000000,4.000000,4.000000,4.000000,4.000000,4.000000,4.000000,4.000000,4.000000,4.000000,4.000000,100.000000,,,,,,,,,,,,,,,,,,,,,,,,,,,,
1649271041.907803,1649271041.916181,64.000000,0.000000,4228.846191,4244.102539,4230.384766,4244.615234,4273.205078,4243.589844,4240.641113,4240.641113,4227.179688,4233.205078,4228.461426,4243.974121,4228.461426,4229.743652,3528.000000,1.000000,15.000000,,,,0.000000,4.000000,4.000000,4.000000,4.000000,4.000000,4.000000,4.000000,4.000000,4.000000,4.000000,4.000000,4.000000,4.000000,4.000000,100.000000,,,,,,,,,,,,,,,,,16.000000,0.000000,0.640404,-0.370056,-0.589294,-0.325073,1.009293,-0.055177,0.020020,-29.608606,-95.255974,-1.943999
1649271041.915606,1649271041.923985,65.000000,0.000000,4231.410156,4244.871582,4234.358887,4245.384766,4277.692383,4247.307617,4247.436035,4250.128418,4225.512695,4238.589844,4223.077148,4250.000000,4244.102539,4230.769043,3598.000000,1.000000,15.000000,,,,0.000000,4.000000,4.000000,4.000000,4.000000,4.000000,4.000000,4.000000,4.000000,4.000000,4.000000,4.000000,4.000000,4.000000,4.000000,100.000000,,,,,,,,,,,,,,,,,,,,,,,,,,,,
1649271041.923408,1649271041.931789,66.000000,0.000000,4234.487305,4251.410156,4235.512695,4252.307617,4280.384766,4251.666504,4245.256348,4245.769043,4230.512695,4233.846191,4217.051270,4246.794922,4242.820313,4234.230957,3533.000000,1.000000,15.000000,,,,0.000000,4.000000,4.000000,4.000000,4.000000,4.000000,4.000000,4.000000,4.000000,4.000000,4.000000,4.000000,4.000000,4.000000,4.000000,100.000000,,,,,,,,,,,,,,,,,,,,,,,,,,,,
1649271041.931210,1649271041.939694,67.000000,0.000000,4227.948730,4246.025879,4228.461426,4245.384766,4273.717773,4239.743652,4231.282227,4231.538574,4220.769043,4228.461426,4218.077148,4237.692383,4223.461426,4230.769043,3591.000000,1.000000,15.000000,,,,0.000000,4.000000,4.000000,4.000000,4.000000,4.000000,4.000000,4.000000,4.000000,4.000000,4.000000,4.000000,4.000000,4.000000,4.000000,100.000000,,,,,,,,,,,,,,,,,,,,,,,,,,,,
1649271041.939013,1649271041.947598,68.000000,0.000000,4218.846191,4235.256348,4220.641113,4233.846191,4266.025879,4234.487305,4229.743652,4224.871582,4217.948730,4222.820313,4207.563965,4232.563965,4209.615234,4223.077148,3628.000000,1.000000,15.000000,,,,0.000000,4.000000,4.000000,4.000000,4.000000,4.000000,4.000000,4.000000,4.000000,4.000000,4.000000,4.000000,4.000000,4.000000,4.000000,100.000000,,,,,,,,,,,,,,,,,17.000000,0.000000,0.640211,-0.369995,-0.589172,-0.325745,0.994156,-0.063478,0.021973,-29.010452,-93.910126,-2.841230
1649271041.946815,1649271041.955402,69.000000,0.000000,4227.179688,4239.871582,4231.410156,4239.358887,4274.871582,4247.948730,4247.051270,4235.897461,4253.589844,4228.717773,4219.615234,4245.769043,4223.333496,4231.666504,3592.000000,1.000000,15.000000,,,,0.000000,4.000000,4.000000,4.000000,4.000000,4.000000,4.000000,4.000000,4.000000,4.000000,4.000000,4.000000,4.000000,4.000000,4.000000,100.000000,,,,,,,,,,,,,,,,,,,,,,,,,,,,
1649271041.954617,1649271041.963307,70.000000,0.000000,4238.717773,4253.077148,4241.153809,4254.102539,4284.871582,4251.153809,4248.846191,4238.077148,4282.051270,4238.846191,4238.077148,4255.769043,4239.230957,4240.256348,3559.000000,1.000000,15.000000,,,,0.000000,4.000000,4.000000,4.000000,4.000000,4.000000,4.000000,4.000000,4.000000,4.000000,4.000000,4.000000,4.000000,4.000000,4.000000,100.000000,,,,,,,,,,,,,,,,,,,,,,,,,,,,
1649271041.962420,1649271041.971111,71.000000,0.000000,4230.897461,4250.769043,4230.000000,4252.436035,4279.615234,4240.641113,4233.717773,4227.692383,4275.769043,4232.436035,4221.794922,4243.974121,4230.641113,4232.820313,3603.000000,1.000000,15.000000,,,,0.000000,4.000000,4.000000,4.000000,4.000000,4.000000,4.000000,4.000000,4.000000,4.000000,4.000000,4.000000,4.000000,4.000000,4.000000,100.000000,,,,,,,,,,,,,,,,,,,,,,,,,,,,
1649271041.970222,1649271041.979015,72.000000,0.000000,4232.436035,4251.282227,4231.794922,4246.794922,4275.641113,4236.922852,4231.025879,4232.692383,4280.128418,4229.615234,4217.436035,4247.436035,4228.717773,4238.077148,1628.000000,1.000000,15.000000,,,,0.000000,4.000000,4.000000,4.000000,4.000000,4.000000,4.000000,4.000000,4.000000,4.000000,4.000000,4.000000,4.000000,4.000000,4.000000,100.000000,1.000000,100.000000,4.000000,4.000000,4.000000,4.000000,4.000000,4.000000,4.000000,4.000000,4.000000,4.000000,4.000000,4.000000,4.000000,4.000000,18.000000,0.000000,0.640139,-0.369690,-0.589172,-0.326233,1.023453,-0.055665,0.039063,-27.066454,-95.106430,-1.345846
1649271041.978025,1649271041.986820,73.000000,0.000000,4246.538574,4261.666504,4244.871582,4252.179688,4283.205078,4235.769043,4238.461426,4238.846191,4292.307617,4234.487305,4236.538574,4262.820313,4241.538574,4251.538574,3617.000000,1.000000,15.000000,,,,0.000000,4.000000,4.000000,4.000000,4.000000,4.000000,4.000000,4.000000,4.000000,4.000000,4.000000,4.000000,4.000000,4.000000,4.000000,100.000000,,,,,,,,,,,,,,,,,,,,,,,,,,,,
1649271041.985827,1649271041.994724,74.000000,0.000000,4237.051270,4252.051270,4235.256348,4250.897461,4283.205078,4233.846191,4234.230957,4223.589844,4279.358887,4225.256348,4226.282227,4253.205078,4235.384766,4238.717773,3605.000000,1.000000,15.000000,,,,0.000000,4.000000,4.000000,4.000000,4.000000,4.000000,4.000000,4.000000,4.000000,4.000000,4.000000,4.000000,4.000000,4.000000,4.000000,100.000000,,,,,,,,,,,,,,,,,,,,,,,,,,,,
1649271041.993629,1649271042.002528,75.000000,0.000000,4225.128418,4237.948730,4223.974121,4243.077148,4277.179688,4240.384766,4231.410156,4217.179688,4267.436035,4215.641113,4208.205078,4239.487305,4225.897461,4227.179688,3595.000000,1.000000,15.000000,,,,0.000000,4.000000,4.000000,4.000000,4.000000,4.000000,4.000000,4.000000,4.000000,4.000000,4.000000,4.000000,4.000000,4.000000,4.000000,100.000000,,,,,,,,,,,,,,,,,,,,,,,,,,,,
1649271042.001432,1649271042.010433,76.000000,0.000000,4239.102539,4245.769043,4233.205078,4244.487305,4281.025879,4246.922852,4240.128418,4230.641113,4286.922852,4231.025879,4223.589844,4246.282227,4239.615234,4241.666504,3558.000000,1.000000,15.000000,,,,0.000000,4.000000,4.000000,4.000000,4.000000,4.000000,4.000000,4.000000,4.000000,4.000000,4.000000,4.000000,4.000000,4.000000,4.000000,100.000000,,,,,,,,,,,,,,,,,19.000000,0.000000,0.640126,-0.369324,-0.589111,-0.326782,1.001968,-0.049805,0.038575,-29.309528,-94.358742,-2.542153
1649271042.009234,1649271042.018237,77.000000,0.000000,4248.333496,4252.436035,4238.846191,4249.358887,4286.666504,4250.128418,4247.692383,4237.563965,4310.256348,4249.487305,4240.641113,4253.846191,4252.179688,4250.641113,3503.000000,1.000000,15.000000,,,,0.000000,4.000000,4.000000,4.000000,4.000000,4.000000,4.000000,4.000000,4.000000,4.000000,4.000000,4.000000,4.000000,4.000000,4.000000,100.000000,,,,,,,,,,,,,,,,,,,,,,,,,,,,
1649271042.017036,1649271042.026141,78.000000,0.000000,4236.538574,4245.769043,4232.948730,4245.641113,4283.974121,4249.871582,4244.871582,4228.205078,4304.487305,4249.615234,4234.743652,4248.717773,4246.666504,4242.307617,3605.000000,1.000000,15.000000,,,,0.000000,4.000000,4.000000,4.000000,4.000000,4.000000,4.000000,4.000000,4.000000,4.000000,4.000000,4.000000,4.000000,4.000000,4.000000,100.000000,,,,,,,,,,,,,,,,,,,,,,,,,,,,
1649271042.024839,1649271042.033946,79.000000,0.000000,4231.794922,4244.230957,4234.102539,4241.922852,4279.487305,4245.256348,4233.974121,4217.307617,4288.589844,4244.615234,4230.000000,4248.461426,4241.794922,4238.461426,3595.000000,1.000000,15.000000,,,,0.000000,4.000000,4.000000,4.000000,4.000000,4.000000,4.000000,4.000000,4.000000,4.000000,4.000000,4.000000,4.000000,4.000000,4.000000,100.000000,,,,,,,,,,,,,,,,,,,,,,,,,,,,
1649271042.032641,1649271042.041650,80.000000,0.000000,4236.025879,4247.179688,4234.871582,4245.128418,4282.692383,4243.717773,4230.000000,4215.641113,4290.641113,4238.717773,4232.436035,4250.256348,4238.589844,4238.461426,3558.000000,1.000000,15.000000,,,,0.000000,4.000000,4.000000,4.000000,4.000000,4.000000,4.000000,4.000000,4.000000,4.000000,4.000000,4.000000,4.000000,4.000000,4.000000,100.000000,,,,,,,,,,,,,,,,,20.000000,0.000000,0.640139,-0.369507,-0.588745,-0.327209,1.002457,-0.047364,0.036622,-27.215992,-94.508278,-1.943999
1649271042.040443,1649271042.049454,81.000000,0.000000,4233.717773,4244.871582,4229.487305,4241.666504,4283.717773,4246.794922,4241.153809,4221.666504,4305.641113,4227.179688,4233.205078,4246.153809,4235.256348,4233.717773,3503.000000,1.000000,15.000000,,,,0.000000,4.000000,4.000000,4.000000,4.000000,4.000000,4.000000,4.000000,4.000000,4.000000,4.000000,4.000000,4.000000,4.000000,4.000000,100.000000,,,,,,,,,,,,,,,,,,,,,,,,,,,,
1649271042.048246,1649271042.057358,82.000000,0.000000,4232.820313,4242.692383,4229.358887,4235.897461,4280.641113,4248.461426,4247.692383,4224.743652,4311.282227,4235.384766,4234.230957,4247.948730,4245.000000,4233.077148,3605.000000,1.000000,15.000000,,,,0.000000,4.000000,4.000000,4.000000,4.000000,4.000000,4.000000,4.000000,4.000000,4.000000,4.000000,4.000000,4.000000,4.000000,4.000000,100.000000,,,,,,,,,,,,,,,,,,,,,,,,,,,,
1649271042.056048,1649271042.065162,83.000000,0.000000,4234.102539,4241.153809,4230.384766,4233.461426,4283.333496,4241.666504,4235.769043,4218.205078,4302.692383,4249.358887,4232.820313,4249.487305,4247.948730,4232.436035,3595.000000,1.000000,15.000000,,,,0.000000,4.000000,4.000000,4.000000,4.000000,4.000000,4.000000,4.000000,4.000000,4.000000,4.000000,4.000000,4.000000,4.000000,4.000000,100.000000,,,,,,,,,,,,,,,,,,,,,,,,,,,,
1649271042.063851,1649271042.072867,84.000000,0.000000,4233.077148,4242.692383,4228.077148,4234.230957,4284.743652,4233.461426,4227.563965,4216.666504,4292.179688,4240.512695,4229.102539,4246.153809,4235.512695,4232.820313,3558.000000,1.000000,15.000000,,,,0.000000,4.000000,4.000000,4.000000,4.000000,4.000000,4.000000,4.000000,4.000000,4.000000,4.000000,4.000000,4.000000,4.000000,4.000000,100.000000,,,,,,,,,,,,,,,,,21.000000,0.000000,0.640033,-0.369507,-0.588623,-0.327637,1.003433,-0.044434,0.036133,-27.814146,-94.358742,-2.542153
1649271042.071653,1649271042.080671,85.000000,0.000000,4235.641113,4247.692383,4229.743652,4241.410156,4281.282227,4230.897461,4229.487305,4214.743652,4298.589844,4236.282227,4232.948730,4247.436035,4232.820313,4240.128418,3503.000000,1.000000,15.000000,,,,0.000000,4.000000,4.000000,4.000000,4.000000,4.000000,4.000000,4.000000,4.000000,4.000000,4.000000,4.000000,4.000000,4.000000,4.000000,100.000000,,,,,,,,,,,,,,,,,,,,,,,,,,,,
1649271042.079455,1649271042.088375,86.000000,0.000000,4238.077148,4247.307617,4232.948730,4245.641113,4279.102539,4231.410156,4223.717773,4203.077148,4308.846191,4243.461426,4236.153809,4250.769043,4238.461426,4241.922852,3605.000000,1.000000,15.000000,,,,0.000000,4.000000,4.000000,4.000000,4.000000,4.000000,4.000000,4.000000,4.000000,4.000000,4.000000,4.000000,4.000000,4.000000,4.000000,100.000000,,,,,,,,,,,,,,,,,,,,,,,,,,,,
1649271042.087258,1649271042.096279,87.000000,0.000000,4234.487305,4244.615234,4228.461426,4242.820313,4280.512695,4229.615234,4213.974121,4193.461426,4307.179688,4226.410156,4226.538574,4247.307617,4235.512695,4234.743652,3595.000000,1.000000,15.000000,,,,0.000000,4.000000,4.000000,4.000000,4.000000,4.000000,4.000000,4.000000,4.000000,4.000000,4.000000,4.000000,4.000000,4.000000,4.000000,100.000000,,,,,,,,,,,,,,,,,,,,,,,,,,,,
1649271042.095060,1649271042.104084,88.000000,0.000000,4232.307617,4248.077148,4227.948730,4243.333496,4282.436035,4228.846191,4215.769043,4195.256348,4317.563965,4209.358887,4220.897461,4242.948730,4230.769043,4230.769043,3558.000000,1.000000,15.000000,,,,0.000000,4.000000,4.000000,4.000000,4.000000,4.000000,4.000000,4.000000,4.000000,4.000000,4.000000,4.000000,4.000000,4.000000,4.000000,100.000000,,,,,,,,,,,,,,,,,22.000000,0.000000,0.640076,-0.369507,-0.588440,-0.327881,1.000015,-0.059083,0.030274,-29.159990,-93.760590,-2.990768
1649271042.102862,1649271042.111988,89.000000,0.000000,4233.205078,4247.820313,4226.794922,4241.282227,4280.641113,4232.436035,4225.512695,4200.769043,4331.410156,4226.410156,4226.922852,4241.410156,4232.436035,4230.769043,3503.000000,1.000000,15.000000,,,,0.000000,4.000000,4.000000,4.000000,4.000000,4.000000,4.000000,4.000000,4.000000,4.000000,4.000000,4.000000,4.000000,4.000000,4.000000,100.000000,,,,,,,,,,,,,,,,,,,,,,,,,,,,
1649271042.110665,1649271042.119892,90.000000,0.000000,4229.743652,4242.307617,4220.384766,4232.563965,4279.102539,4232.820313,4227.563965,4194.743652,4319.743652,4235.897461,4225.641113,4238.333496,4232.307617,4228.205078,3605.000000,1.000000,15.000000,,,,0.000000,4.000000,4.000000,4.000000,4.000000,4.000000,4.000000,4.000000,4.000000,4.000000,4.000000,4.000000,4.000000,4.000000,4.000000,100.000000,,,,,,,,,,,,,,,,,,,,,,,,,,,,
1649271042.118467,1649271042.127697,91.000000,0.000000,4230.128418,4244.615234,4224.615234,4237.436035,4281.153809,4228.846191,4225.384766,4193.589844,4306.666504,4223.974121,4221.538574,4242.563965,4228.589844,4229.102539,3595.000000,1.000000,15.000000,,,,0.000000,4.000000,4.000000,4.000000,4.000000,4.000000,4.000000,4.000000,4.000000,4.000000,4.000000,4.000000,4.000000,4.000000,4.000000,100.000000,,,,,,,,,,,,,,,,,,,,,,,,,,,,
1649271042.126269,1649271042.135501,92.000000,0.000000,4240.384766,4250.384766,4233.461426,4248.333496,4280.769043,4234.358887,4232.820313,4208.974121,4315.769043,4219.230957,4226.153809,4249.615234,4227.051270,4234.871582,3558.000000,1.000000,15.000000,,,,0.000000,4.000000,4.000000,4.000000,4.000000,4.000000,4.000000,4.000000,4.000000,4.000000,4.000000,4.000000,4.000000,4.000000,4.000000,100.000000,,,,,,,,,,,,,,,,,23.000000,0.000000,0.640209,-0.369568,-0.588257,-0.327881,1.028824,-0.069825,0.041016,-27.814146,-94.358742,-1.345846
1649271042.134072,1649271042.143405,93.000000,0.000000,4246.538574,4247.563965,4232.692383,4246.282227,4280.384766,4239.487305,4237.307617,4210.384766,4316.538574,4225.897461,4229.102539,4250.641113,4229.230957,4239.487305,3503.000000,1.000000,15.000000,,,,0.000000,4.000000,4.000000,4.000000,4.000000,4.000000,4.000000,4.000000,4.000000,4.000000,4.000000,4.000000,4.000000,4.000000,4.000000,100.000000,,,,,,,,,,,,,,,,,,,,,,,,,,,,
1649271042.141874,1649271042.151210,94.000000,0.000000,4244.487305,4247.948730,4232.436035,4245.256348,4288.077148,4234.615234,4228.717773,4197.820313,4297.563965,4241.538574,4230.128418,4253.717773,4233.846191,4243.589844,3605.000000,1.000000,15.000000,,,,0.000000,4.000000,4.000000,4.000000,4.000000,4.000000,4.000000,4.000000,4.000000,4.000000,4.000000,4.000000,4.000000,4.000000,4.000000,100.000000,,,,,,,,,,,,,,,,,,,,,,,,,,,,
1649271042.149676,1649271042.159114,95.000000,0.000000,4245.256348,4254.230957,4234.743652,4245.897461,4294.871582,4240.000000,4235.000000,4206.153809,4297.179688,4231.538574,4231.794922,4257.948730,4230.769043,4245.384766,3595.000000,1.000000,15.000000,,,,0.000000,4.000000,4.000000,4.000000,4.000000,4.000000,4.000000,4.000000,4.000000,4.000000,4.000000,4.000000,4.000000,4.000000,4.000000,100.000000,,,,,,,,,,,,,,,,,,,,,,,,,,,,
1649271042.157479,1649271042.166919,96.000000,0.000000,4250.384766,4259.230957,4237.307617,4247.948730,4293.846191,4253.717773,4248.333496,4218.461426,4315.000000,4203.077148,4233.205078,4259.871582,4227.948730,4246.794922,3558.000000,1.000000,15.000000,,,,0.000000,4.000000,4.000000,4.000000,4.000000,4.000000,4.000000,4.000000,4.000000,4.000000,4.000000,4.000000,4.000000,4.000000,4.000000,100.000000,,,,,,,,,,,,,,,,,24.000000,0.000000,0.640279,-0.369812,-0.587891,-0.328125,1.015152,-0.059083,0.047852,-28.412298,-93.461510,-2.243076
1649271042.165281,1649271042.174823,97.000000,0.000000,4251.410156,4265.897461,4245.128418,4258.974121,4295.769043,4251.538574,4238.333496,4205.512695,4313.461426,4207.948730,4240.384766,4260.641113,4241.922852,4248.717773,3503.000000,1.000000,15.000000,,,,0.000000,4.000000,4.000000,4.000000,4.000000,4.000000,4.000000,4.000000,4.000000,4.000000,4.000000,4.000000,4.000000,4.000000,4.000000,100.000000,,,,,,,,,,,,,,,,,,,,,,,,,,,,
1649271042.173083,1649271042.182627,98.000000,0.000000,4248.717773,4264.230957,4245.769043,4261.794922,4297.051270,4240.512695,4229.358887,4197.179688,4299.615234,4242.307617,4247.563965,4261.922852,4251.153809,4248.846191,3605.000000,1.000000,15.000000,,,,0.000000,4.000000,4.000000,4.000000,4.000000,4.000000,4.000000,4.000000,4.000000,4.000000,4.000000,4.000000,4.000000,4.000000,4.000000,100.000000,,,,,,,,,,,,,,,,,,,,,,,,,,,,
1649271042.180886,1649271042.190532,99.000000,0.000000,4247.948730,4254.358887,4236.410156,4250.000000,4288.205078,4236.794922,4236.410156,4207.051270,4296.666504,4256.666504,4246.666504,4262.563965,4242.820313,4245.897461,3595.000000,1.000000,15.000000,,,,0.000000,4.000000,4.000000,4.000000,4.000000,4.000000,4.000000,4.000000,4.000000,4.000000,4.000000,4.000000,4.000000,4.000000,4.000000,100.000000,,,,,,,,,,,,,,,,,,,,,,,,,,,,
1649271042.188688,1649271042.198336,100.000000,0.000000,4245.897461,4257.820313,4233.589844,4246.410156,4282.820313,4231.538574,4231.794922,4202.051270,4291.538574,4244.871582,4245.128418,4257.179688,4245.769043,4243.589844,3558.000000,1.000000,15.000000,,,,0.000000,4.000000,4.000000,4.000000,4.000000,4.000000,4.000000,4.000000,4.000000,4.000000,4.000000,4.000000,4.000000,4.000000,4.000000,100.000000,,,,,,,,,,,,,,,,,25.000000,0.000000,0.639942,-0.370544,-0.587524,-0.328613,1.008804,-0.064454,0.034180,-29.608606,-94.508278,-1.943999
1649271042.196491,1649271042.206240,101.000000,0.000000,4245.256348,4264.743652,4235.256348,4252.820313,4286.025879,4228.077148,4227.563965,4197.948730,4278.974121,4247.307617,4248.717773,4251.153809,4262.436035,4245.897461,3503.000000,1.000000,15.000000,,,,0.000000,4.000000,4.000000,4.000000,4.000000,4.000000,4.000000,4.000000,4.000000,4.000000,4.000000,4.000000,4.000000,4.000000,4.000000,100.000000,,,,,,,,,,,,,,,,,,,,,,,,,,,,
1649271042.204293,1649271042.214045,102.000000,0.000000,4244.487305,4251.794922,4231.025879,4247.820313,4280.897461,4230.512695,4235.641113,4206.922852,4271.153809,4257.692383,4248.205078,4249.230957,4263.077148,4241.794922,3605.000000,1.000000,15.000000,,,,0.000000,4.000000,4.000000,4.000000,4.000000,4.000000,4.000000,4.000000,4.000000,4.000000,4.000000,4.000000,4.000000,4.000000,4.000000,100.000000,,,,,,,,,,,,,,,,,,,,,,,,,,,,
1649271042.212095,1649271042.221949,103.000000,0.000000,4243.333496,4243.205078,4229.615234,4240.256348,4273.589844,4229.358887,4233.717773,4207.051270,4270.256348,4254.487305,4246.538574,4250.256348,4263.461426,4235.256348,3595.000000,1.000000,15.000000,,,,0.000000,4.000000,4.000000,4.000000,4.000000,4.000000,4.000000,4.000000,4.000000,4.000000,4.000000,4.000000,4.000000,4.000000,4.000000,100.000000,,,,,,,,,,,,,,,,,,,,,,,,,,,,
1649271042.219898,1649271042.229853,104.000000,0.000000,4244.358887,4257.692383,4231.922852,4247.692383,4285.769043,4231.025879,4235.000000,4207.948730,4281.282227,4252.307617,4250.769043,4249.871582,4275.769043,4240.256348,3558.000000,1.000000,15.000000,,,,0.000000,4.000000,4.000000,4.000000,4.000000,4.000000,4.000000,4.000000,4.000000,4.000000,4.000000,4.000000,4.000000,4.000000,4.000000,100.000000,,,,,,,,,,,,,,,,,26.000000,0.000000,0.639747,-0.371887,-0.586853,-0.328674,1.014176,-0.061524,0.038087,-27.664606,-95.555046,-1.943999
1649271042.227700,1649271042.237658,105.000000,0.000000,4248.461426,4268.077148,4233.461426,4261.153809,4301.410156,4234.615234,4241.922852,4212.948730,4296.410156,4258.461426,4256.410156,4250.256348,4277.051270,4247.436035,3503.000000,1.000000,15.000000,,,,0.000000,4.000000,4.000000,4.000000,4.000000,4.000000,4.000000,4.000000,4.000000,4.000000,4.000000,4.000000,4.000000,4.000000,4.000000,100.000000,,,,,,,,,,,,,,,,,,,,,,,,,,,,
1649271042.235502,1649271042.245462,106.000000,0.000000,4248.333496,4263.974121,4237.820313,4264.102539,4295.256348,4230.256348,4231.538574,4207.436035,4296.282227,4260.256348,4260.256348,4253.077148,4273.333496,4245.897461,3605.000000,1.000000,15.000000,,,,0.000000,4.000000,4.000000,4.000000,4.000000,4.000000,4.000000,4.000000,4.000000,4.000000,4.000000,4.000000,4.000000,4.000000,4.000000,100.000000,,,,,,,,,,,,,,,,,,,,,,,,,,,,
1649271042.243305,1649271042.253166,107.000000,0.000000,4245.641113,4260.897461,4242.179688,4257.820313,4286.282227,4227.051270,4229.743652,4207.179688,4291.282227,4271.282227,4264.743652,4256.922852,4279.615234,4245.000000,3595.000000,1.000000,15.000000,,,,0.000000,4.000000,4.000000,4.000000,4.000000,4.000000,4.000000,4.000000,4.000000,4.000000,4.000000,4.000000,4.000000,4.000000,4.000000,100.000000,,,,,,,,,,,,,,,,,,,,,,,,,,,,
1649271042.251107,1649271042.261071,108.000000,0.000000,4253.205078,4263.974121,4245.897461,4259.230957,4290.384766,4233.333496,4242.051270,4219.230957,4290.384766,4287.307617,4270.769043,4263.461426,4284.871582,4250.512695,3558.000000,1.000000,15.000000,,,,0.000000,4.000000,4.000000,4.000000,4.000000,4.000000,4.000000,4.000000,4.000000,4.000000,4.000000,4.000000,4.000000,4.000000,4.000000,100.000000,,,,,,,,,,,,,,,,,27.000000,0.000000,0.639312,-0.372620,-0.586487,-0.329346,1.020035,-0.059571,0.037598,-29.159990,-93.461510,-2.691691
1649271042.258909,1649271042.268875,109.000000,0.000000,4257.436035,4266.538574,4246.025879,4263.974121,4287.948730,4232.307617,4236.922852,4216.153809,4277.948730,4266.666504,4265.512695,4261.025879,4277.948730,4249.743652,3503.000000,1.000000,15.000000,,,,0.000000,4.000000,4.000000,4.000000,4.000000,4.000000,4.000000,4.000000,4.000000,4.000000,4.000000,4.000000,4.000000,4.000000,4.000000,100.000000,,,,,,,,,,,,,,,,,,,,,,,,,,,,
1649271042.266712,1649271042.276679,110.000000,0.000000,4256.153809,4265.641113,4245.641113,4262.051270,4279.487305,4231.025879,4235.384766,4216.794922,4276.794922,4256.666504,4262.179688,4257.820313,4276.794922,4248.846191,3605.000000,1.000000,15.000000,,,,0.000000,4.000000,4.000000,4.000000,4.000000,4.000000,4.000000,4.000000,4.000000,4.000000,4.000000,4.000000,4.000000,4.000000,4.000000,100.000000,,,,,,,,,,,,,,,,,,,,,,,,,,,,
1649271042.274514,1649271042.284384,111.000000,0.000000,4262.820313,4270.641113,4254.358887,4262.692383,4286.282227,4242.051270,4253.077148,4234.487305,4294.871582,4290.512695,4276.538574,4270.000000,4290.384766,4258.461426,3595.000000,1.000000,15.000000,,,,0.000000,4.000000,4.000000,4.000000,4.000000,4.000000,4.000000,4.000000,4.000000,4.000000,4.000000,4.000000,4.000000,4.000000,4.000000,100.000000,,,,,,,,,,,,,,,,,,,,,,,,,,,,
1649271042.282317,1649271042.292288,112.000000,0.000000,4271.282227,4280.128418,4265.384766,4269.358887,4298.717773,4244.358887,4249.487305,4229.871582,4294.487305,4297.179688,4287.563965,4279.743652,4299.871582,4269.871582,3558.000000,1.000000,15.000000,,,,0.000000,4.000000,4.000000,4.000000,4.000000,4.000000,4.000000,4.000000,4.000000,4.000000,4.000000,4.000000,4.000000,4.000000,4.000000,100.000000,,,,,,,,,,,,,,,,,28.000000,0.000000,0.638749,-0.372864,-0.586670,-0.329834,1.018082,-0.060060,0.044434,-27.814146,-94.358742,-1.046769
1649271042.290119,1649271042.300092,113.000000,0.000000,4265.512695,4275.769043,4259.487305,4266.153809,4294.487305,4234.487305,4236.282227,4215.128418,4275.641113,4276.666504,4275.641113,4269.102539,4291.666504,4266.025879,3503.000000,1.000000,15.000000,,,,0.000000,4.000000,4.000000,4.000000,4.000000,4.000000,4.000000,4.000000,4.000000,4.000000,4.000000,4.000000,4.000000,4.000000,4.000000,100.000000,,,,,,,,,,,,,,,,,,,,,,,,,,,,
1649271042.297921,1649271042.307997,114.000000,0.000000,4255.512695,4261.025879,4245.897461,4254.615234,4280.769043,4231.153809,4244.230957,4221.794922,4271.922852,4275.000000,4259.358887,4255.256348,4275.897461,4251.282227,3605.000000,1.000000,15.000000,,,,0.000000,4.000000,4.000000,4.000000,4.000000,4.000000,4.000000,4.000000,4.000000,4.000000,4.000000,4.000000,4.000000,4.000000,4.000000,100.000000,,,,,,,,,,,,,,,,,,,,,,,,,,,,
1649271042.305724,1649271042.315801,115.000000,0.000000,4259.358887,4264.358887,4247.179688,4259.102539,4280.384766,4237.307617,4251.666504,4233.461426,4279.871582,4284.487305,4270.512695,4261.538574,4274.358887,4249.487305,3595.000000,1.000000,15.000000,,,,0.000000,4.000000,4.000000,4.000000,4.000000,4.000000,4.000000,4.000000,4.000000,4.000000,4.000000,4.000000,4.000000,4.000000,4.000000,100.000000,,,,,,,,,,,,,,,,,,,,,,,,,,,,
1649271042.313526,1649271042.323705,116.000000,0.000000,4257.692383,4268.461426,4248.717773,4263.461426,4282.179688,4240.641113,4244.230957,4231.410156,4277.820313,4278.846191,4281.410156,4262.820313,4274.358887,4251.025879,3558.000000,1.000000,15.000000,,,,0.000000,4.000000,4.000000,4.000000,4.000000,4.000000,4.000000,4.000000,4.000000,4.000000,4.000000,4.000000,4.000000,4.000000,4.000000,100.000000,,,,,,,,,,,,,,,,,29.000000,0.000000,0.638785,-0.372803,-0.586670,-0.329834,1.018570,-0.049805,0.038575,-28.412298,-94.209198,-1.943999
1649271042.321328,1649271042.331510,117.000000,0.000000,4246.794922,4253.974121,4242.436035,4249.230957,4269.615234,4241.410156,4242.179688,4229.743652,4273.077148,4267.948730,4266.666504,4248.461426,4264.743652,4246.153809,3503.000000,1.000000,15.000000,,,,0.000000,4.000000,4.000000,4.000000,4.000000,4.000000,4.000000,4.000000,4.000000,4.000000,4.000000,4.000000,4.000000,4.000000,4.000000,100.000000,,,,,,,,,,,,,,,,,,,,,,,,,,,,
1649271042.329131,1649271042.339414,118.000000,0.000000,4249.358887,4250.769043,4243.205078,4243.974121,4263.589844,4244.358887,4247.307617,4232.179688,4269.487305,4272.563965,4254.102539,4248.589844,4263.205078,4246.410156,3605.000000,1.000000,15.000000,,,,0.000000,4.000000,4.000000,4.000000,4.000000,4.000000,4.000000,4.000000,4.000000,4.000000,4.000000,4.000000,4.000000,4.000000,4.000000,100.000000,,,,,,,,,,,,,,,,,,,,,,,,,,,,
1649271042.336933,1649271042.347218,119.000000,0.000000,4260.897461,4262.820313,4248.461426,4255.128418,4274.230957,4241.153809,4243.333496,4227.436035,4254.358887,4278.846191,4260.769043,4260.128418,4273.077148,4250.128418,3595.000000,1.000000,15.000000,,,,0.000000,4.000000,4.000000,4.000000,4.000000,4.000000,4.000000,4.000000,4.000000,4.000000,4.000000,4.000000,4.000000,4.000000,4.000000,100.000000,,,,,,,,,,,,,,,,,,,,,,,,,,,,
1649271042.344735,1649271042.355123,120.000000,0.000000,4263.077148,4265.000000,4253.205078,4258.717773,4280.256348,4234.358887,4234.230957,4225.000000,4240.128418,4272.948730,4271.282227,4261.922852,4277.563965,4254.487305,3558.000000,1.000000,15.000000,,,,0.000000,4.000000,4.000000,4.000000,4.000000,4.000000,4.000000,4.000000,4.000000,4.000000,4.000000,4.000000,4.000000,4.000000,4.000000,100.000000,,,,,,,,,,,,,,,,,30.000000,0.000000,0.638701,-0.372375,-0.586792,-0.330261,1.003922,-0.074708,0.035157,-27.215992,-93.760590,-1.943999
1649271042.352538,1649271042.362927,121.000000,0.000000,4260.128418,4262.307617,4257.179688,4257.179688,4275.256348,4233.333496,4232.307617,4226.538574,4252.436035,4273.846191,4274.743652,4261.025879,4278.846191,4260.641113,3503.000000,1.000000,15.000000,,,,0.000000,4.000000,4.000000,4.000000,4.000000,4.000000,4.000000,4.000000,4.000000,4.000000,4.000000,4.000000,4.000000,4.000000,4.000000,100.000000,,,,,,,,,,,,,,,,,,,,,,,,,,,,
1649271042.360340,1649271042.370831,122.000000,0.000000,4263.205078,4265.000000,4255.641113,4258.717773,4276.153809,4234.230957,4234.102539,4222.436035,4272.436035,4279.615234,4271.282227,4264.487305,4280.769043,4261.922852,3605.000000,1.000000,15.000000,,,,0.000000,4.000000,4.000000,4.000000,4.000000,4.000000,4.000000,4.000000,4.000000,4.000000,4.000000,4.000000,4.000000,4.000000,4.000000,100.000000,,,,,,,,,,,,,,,,,,,,,,,,,,,,
1649271042.368142,1649271042.378636,123.000000,0.000000,4261.666504,4262.179688,4250.641113,4253.717773,4275.897461,4229.615234,4230.384766,4212.436035,4266.922852,4254.743652,4260.000000,4256.794922,4272.051270,4252.179688,3595.000000,1.000000,15.000000,,,,0.000000,4.000000,4.000000,4.000000,4.000000,4.000000,4.000000,4.000000,4.000000,4.000000,4.000000,4.000000,4.000000,4.000000,4.000000,100.000000,,,,,,,,,,,,,,,,,,,,,,,,,,,,
1649271042.375945,1649271042.386540,124.000000,0.000000,4258.077148,4258.205078,4248.846191,4247.948730,4269.102539,4231.153809,4231.025879,4214.358887,4262.948730,4237.307617,4256.538574,4247.307617,4267.692383,4245.769043,3558.000000,1.000000,15.000000,,,,0.000000,4.000000,4.000000,4.000000,4.000000,4.000000,4.000000,4.000000,4.000000,4.000000,4.000000,4.000000,4.000000,4.000000,4.000000,100.000000,,,,,,,,,,,,,,,,,31.000000,0.000000,0.638464,-0.372253,-0.586853,-0.330750,1.015152,-0.064454,0.040040,-28.262760,-95.854126,-2.841230
1649271042.383747,1649271042.394344,125.000000,0.000000,4260.641113,4261.666504,4250.000000,4249.743652,4264.358887,4233.846191,4241.410156,4227.436035,4280.384766,4263.589844,4263.461426,4253.589844,4277.692383,4249.487305,3503.000000,1.000000,15.000000,,,,0.000000,4.000000,4.000000,4.000000,4.000000,4.000000,4.000000,4.000000,4.000000,4.000000,4.000000,4.000000,4.000000,4.000000,4.000000,100.000000,,,,,,,,,,,,,,,,,,,,,,,,,,,,
1649271042.391549,1649271042.402249,126.000000,0.000000,4262.563965,4262.820313,4253.461426,4253.589844,4264.230957,4230.897461,4248.205078,4236.410156,4287.436035,4282.179688,4264.615234,4261.025879,4281.538574,4255.641113,3605.000000,1.000000,15.000000,,,,0.000000,4.000000,4.000000,4.000000,4.000000,4.000000,4.000000,4.000000,4.000000,4.000000,4.000000,4.000000,4.000000,4.000000,4.000000,100.000000,,,,,,,,,,,,,,,,,,,,,,,,,,,,
1649271042.399352,1649271042.410053,127.000000,0.000000,4263.333496,4262.307617,4259.615234,4259.871582,4271.410156,4239.743652,4248.717773,4239.102539,4277.051270,4279.358887,4263.333496,4263.205078,4274.871582,4260.769043,52.000000,1.000000,15.000000,,,,0.000000,4.000000,4.000000,4.000000,4.000000,4.000000,4.000000,4.000000,4.000000,4.000000,4.000000,4.000000,4.000000,4.000000,4.000000,100.000000,,,,,,,,,,,,,,,,,,,,,,,,,,,,
1649271042.407154,1649271042.417857,0.000000,0.000000,4266.666504,4262.948730,4265.000000,4263.589844,4278.717773,4247.563965,4250.128418,4244.871582,4274.615234,4274.743652,4266.666504,4264.615234,4273.077148,4264.358887,3531.000000,1.000000,15.000000,,,,0.000000,4.000000,4.000000,4.000000,4.000000,4.000000,4.000000,4.000000,4.000000,4.000000,4.000000,4.000000,4.000000,4.000000,4.000000,100.000000,,,,,,,,,,,,,,,,,0.000000,0.000000,0.638275,-0.372498,-0.586731,-0.331055,1.001968,-0.068849,0.054688,-28.561836,-92.564278,-1.794461
1649271042.414956,1649271042.425762,1.000000,0.000000,4266.410156,4264.487305,4263.333496,4261.282227,4277.307617,4239.487305,4252.563965,4249.871582,4275.641113,4261.410156,4269.615234,4262.948730,4277.563965,4261.282227,3603.000000,1.000000,15.000000,,,,0.000000,4.000000,4.000000,4.000000,4.000000,4.000000,4.000000,4.000000,4.000000,4.000000,4.000000,4.000000,4.000000,4.000000,4.000000,100.000000,,,,,,,,,,,,,,,,,,,,,,,,,,,,
1649271042.422759,1649271042.433566,2.000000,0.000000,4260.512695,4263.974121,4252.179688,4259.230957,4271.538574,4231.922852,4245.384766,4236.666504,4265.769043,4246.282227,4261.025879,4257.692383,4277.948730,4250.512695,3534.000000,1.000000,15.000000,,,,0.000000,4.000000,4.000000,4.000000,4.000000,4.000000,4.000000,4.000000,4.000000,4.000000,4.000000,4.000000,4.000000,4.000000,4.000000,100.000000,,,,,,,,,,,,,,,,,,,,,,,,,,,,
1649271042.430561,1649271042.441371,3.000000,0.000000,4258.717773,4263.846191,4248.461426,4260.641113,4270.256348,4235.128418,4238.974121,4223.077148,4259.487305,4253.974121,4257.436035,4256.282227,4276.025879,4248.333496,3597.000000,1.000000,15.000000,,,,0.000000,4.000000,4.000000,4.000000,4.000000,4.000000,4.000000,4.000000,4.000000,4.000000,4.000000,4.000000,4.000000,4.000000,4.000000,100.000000,,,,,,,,,,,,,,,,,,,,,,,,,,,,
1649271042.438364,1649271042.449075,4.000000,0.000000,4262.436035,4264.358887,4257.692383,4263.717773,4273.333496,4241.538574,4245.769043,4231.153809,4263.589844,4272.307617,4268.974121,4261.666504,4276.538574,4255.769043,3630.000000,1.000000,15.000000,,,,0.000000,4.000000,4.000000,4.000000,4.000000,4.000000,4.000000,4.000000,4.000000,4.000000,4.000000,4.000000,4.000000,4.000000,4.000000,100.000000,,,,,,,,,,,,,,,,,1.000000,0.000000,0.637663,-0.373169,-0.586487,-0.331909,1.004898,-0.062013,0.027344,-27.664606,-94.209198,-2.243076
1649271042.446166,1649271042.456979,5.000000,0.000000,4263.077148,4263.717773,4263.205078,4262.051270,4274.615234,4244.871582,4248.846191,4239.871582,4266.282227,4271.922852,4274.487305,4265.128418,4278.974121,4258.205078,3592.000000,1.000000,15.000000,,,,0.000000,4.000000,4.000000,4.000000,4.000000,4.000000,4.000000,4.000000,4.000000,4.000000,4.000000,4.000000,4.000000,4.000000,4.000000,100.000000,,,,,,,,,,,,,,,,,,,,,,,,,,,,
1649271042.453968,1649271042.464783,6.000000,0.000000,4264.230957,4264.615234,4260.897461,4254.743652,4275.128418,4244.102539,4242.820313,4233.461426,4262.179688,4254.230957,4269.743652,4265.128418,4281.153809,4257.179688,3559.000000,1.000000,15.000000,,,,0.000000,4.000000,4.000000,4.000000,4.000000,4.000000,4.000000,4.000000,4.000000,4.000000,4.000000,4.000000,4.000000,4.000000,4.000000,100.000000,,,,,,,,,,,,,,,,,,,,,,,,,,,,
1649271042.461771,1649271042.472688,7.000000,0.000000,4260.256348,4258.589844,4253.974121,4248.717773,4276.922852,4240.384766,4242.051270,4229.230957,4257.692383,4250.512695,4267.179688,4262.820313,4276.666504,4253.974121,3605.000000,1.000000,15.000000,,,,0.000000,4.000000,4.000000,4.000000,4.000000,4.000000,4.000000,4.000000,4.000000,4.000000,4.000000,4.000000,4.000000,4.000000,4.000000,100.000000,,,,,,,,,,,,,,,,,,,,,,,,,,,,
1649271042.469573,1649271042.480492,8.000000,0.000000,4250.641113,4250.641113,4248.077148,4248.077148,4274.487305,4242.307617,4249.358887,4240.384766,4264.871582,4270.128418,4266.282227,4260.384766,4266.410156,4246.922852,1631.000000,1.000000,15.000000,,,,0.000000,4.000000,4.000000,4.000000,4.000000,4.000000,4.000000,4.000000,4.000000,4.000000,4.000000,4.000000,4.000000,4.000000,4.000000,100.000000,1.000000,100.000000,4.000000,4.000000,4.000000,4.000000,4.000000,4.000000,4.000000,4.000000,4.000000,4.000000,4.000000,4.000000,4.000000,4.000000,2.000000,0.000000,0.636803,-0.373901,-0.586609,-0.332520,1.008804,-0.056641,0.038575,-28.262760,-93.910126,-4.336614
1649271042.477375,1649271042.488396,9.000000,0.000000,4247.051270,4253.205078,4247.948730,4249.615234,4266.538574,4248.333496,4250.769043,4246.153809,4277.051270,4276.153809,4264.102539,4257.948730,4267.563965,4245.000000,3615.000000,1.000000,15.000000,,,,0.000000,4.000000,4.000000,4.000000,4.000000,4.000000,4.000000,4.000000,4.000000,4.000000,4.000000,4.000000,4.000000,4.000000,4.000000,100.000000,,,,,,,,,,,,,,,,,,,,,,,,,,,,
1649271042.485178,1649271042.496201,10.000000,0.000000,4249.102539,4255.641113,4246.153809,4248.717773,4265.512695,4250.000000,4246.282227,4237.563965,4273.205078,4257.179688,4261.794922,4252.307617,4277.436035,4246.794922,3605.000000,1.000000,15.000000,,,,0.000000,4.000000,4.000000,4.000000,4.000000,4.000000,4.000000,4.000000,4.000000,4.000000,4.000000,4.000000,4.000000,4.000000,4.000000,100.000000,,,,,,,,,,,,,,,,,,,,,,,,,,,,
1649271042.492980,1649271042.504105,11.000000,0.000000,4246.794922,4248.589844,4241.538574,4244.615234,4265.897461,4245.897461,4245.384766,4231.025879,4259.871582,4253.205078,4257.436035,4245.384766,4271.025879,4242.563965,3596.000000,1.000000,15.000000,,,,0.000000,4.000000,4.000000,4.000000,4.000000,4.000000,4.000000,4.000000,4.000000,4.000000,4.000000,4.000000,4.000000,4.000000,4.000000,100.000000,,,,,,,,,,,,,,,,,,,,,,,,,,,,
1649271042.500782,1649271042.511910,12.000000,0.000000,4245.897461,4247.051270,4242.051270,4243.846191,4265.128418,4243.589844,4247.051270,4233.077148,4258.461426,4269.358887,4256.282227,4245.384766,4258.461426,4241.410156,3553.000000,1.000000,15.000000,,,,0.000000,4.000000,4.000000,4.000000,4.000000,4.000000,4.000000,4.000000,4.000000,4.000000,4.000000,4.000000,4.000000,4.000000,4.000000,100.000000,,,,,,,,,,,,,,,,,3.000000,0.000000,0.636429,-0.374268,-0.586609,-0.332825,1.011246,-0.041505,0.037110,-28.711376,-93.012894,-2.691691
1649271042.508585,1649271042.519814,13.000000,0.000000,4247.692383,4250.512695,4238.846191,4245.512695,4271.794922,4248.589844,4247.692383,4236.025879,4265.897461,4263.974121,4252.436035,4247.948730,4258.205078,4244.743652,3503.000000,1.000000,15.000000,,,,0.000000,4.000000,4.000000,4.000000,4.000000,4.000000,4.000000,4.000000,4.000000,4.000000,4.000000,4.000000,4.000000,4.000000,4.000000,100.000000,,,,,,,,,,,,,,,,,,,,,,,,,,,,
1649271042.516387,1649271042.527618,14.000000,0.000000,4244.487305,4246.282227,4230.128418,4241.794922,4269.487305,4250.384766,4252.436035,4238.461426,4275.384766,4236.410156,4243.205078,4244.358887,4259.102539,4242.692383,3605.000000,1.000000,15.000000,,,,0.000000,4.000000,4.000000,4.000000,4.000000,4.000000,4.000000,4.000000,4.000000,4.000000,4.000000,4.000000,4.000000,4.000000,4.000000,100.000000,,,,,,,,,,,,,,,,,,,,,,,,,,,,
1649271042.524190,1649271042.535523,15.000000,0.000000,4250.256348,4252.307617,4243.461426,4247.307617,4262.051270,4248.461426,4262.820313,4250.256348,4288.077148,4246.153809,4258.077148,4249.358887,4264.358887,4248.717773,3596.000000,1.000000,15.000000,,,,0.000000,4.000000,4.000000,4.000000,4.000000,4.000000,4.000000,4.000000,4.000000,4.000000,4.000000,4.000000,4.000000,4.000000,4.000000,100.000000,,,,,,,,,,,,,,,,,,,,,,,,,,,,
1649271042.531992,1649271042.543327,16.000000,0.000000,4266.410156,4269.615234,4262.820313,4266.025879,4273.717773,4250.384766,4263.717773,4262.307617,4292.692383,4284.615234,4286.153809,4265.897461,4278.461426,4263.461426,0.000000,1.000000,15.000000,,,,0.000000,4.000000,4.000000,4.000000,4.000000,4.000000,4.000000,4.000000,4.000000,4.000000,4.000000,4.000000,4.000000,4.000000,4.000000,100.000000,,,,,,,,,,,,,,,,,4.000000,0.000000,0.636506,-0.374573,-0.586365,-0.332764,1.001968,-0.058106,0.034180,-29.010452,-94.358742,-2.542153
1649271042.539794,1649271042.551231,17.000000,0.000000,4268.461426,4269.615234,4257.692383,4267.179688,4287.948730,4252.051270,4254.102539,4254.871582,4281.025879,4284.615234,4283.333496,4270.256348,4285.384766,4262.692383,0.000000,1.000000,15.000000,,,,0.000000,4.000000,4.000000,4.000000,4.000000,4.000000,4.000000,4.000000,4.000000,4.000000,4.000000,4.000000,4.000000,4.000000,4.000000,100.000000,,,,,,,,,,,,,,,,,,,,,,,,,,,,
1649271042.547597,1649271042.559036,18.000000,0.000000,4254.615234,4252.820313,4244.487305,4249.230957,4278.974121,4247.436035,4245.769043,4234.871582,4265.128418,4253.589844,4261.794922,4255.897461,4274.230957,4247.563965,0.000000,1.000000,15.000000,,,,0.000000,4.000000,4.000000,4.000000,4.000000,4.000000,4.000000,4.000000,4.000000,4.000000,4.000000,4.000000,4.000000,4.000000,4.000000,100.000000,,,,,,,,,,,,,,,,,,,,,,,,,,,,
1649271042.555399,1649271042.566940,19.000000,0.000000,4247.051270,4248.589844,4244.871582,4243.717773,4266.538574,4242.436035,4242.307617,4229.871582,4259.743652,4252.692383,4260.769043,4246.153809,4264.615234,4245.512695,0.000000,1.000000,15.000000,,,,0.000000,4.000000,4.000000,4.000000,4.000000,4.000000,4.000000,4.000000,4.000000,4.000000,4.000000,4.000000,4.000000,4.000000,4.000000,100.000000,,,,,,,,,,,,,,,,,,,,,,,,,,,,
1649271042.563201,1649271042.574844,20.000000,0.000000,4250.769043,4256.153809,4248.205078,4252.307617,4265.384766,4244.230957,4244.230957,4237.436035,4269.358887,4275.128418,4269.102539,4249.743652,4268.461426,4251.666504,0.000000,1.000000,15.000000,,,,0.000000,4.000000,4.000000,4.000000,4.000000,4.000000,4.000000,4.000000,4.000000,4.000000,4.000000,4.000000,4.000000,4.000000,4.000000,100.000000,,,,,,,,,,,,,,,,,5.000000,0.000000,0.636423,-0.374756,-0.586304,-0.332825,1.020035,-0.049317,0.048341,-28.262760,-94.657814,-1.345846
1649271042.571004,1649271042.582649,21.000000,0.000000,4243.589844,4252.179688,4238.589844,4248.205078,4262.436035,4245.769043,4245.128418,4231.794922,4272.179688,4262.307617,4258.461426,4245.897461,4266.538574,4240.512695,0.000000,1.000000,15.000000,,,,0.000000,4.000000,4.000000,4.000000,4.000000,4.000000,4.000000,4.000000,4.000000,4.000000,4.000000,4.000000,4.000000,4.000000,4.000000,100.000000,,,,,,,,,,,,,,,,,,,,,,,,,,,,
1649271042.578806,1649271042.590453,22.000000,0.000000,4236.025879,4245.000000,4229.743652,4236.282227,4259.743652,4246.666504,4246.153809,4233.589844,4266.922852,4242.692383,4253.333496,4242.179688,4259.230957,4229.487305,0.000000,1.000000,15.000000,,,,0.000000,4.000000,4.000000,4.000000,4.000000,4.000000,4.000000,4.000000,4.000000,4.000000,4.000000,4.000000,4.000000,4.000000,4.000000,100.000000,,,,,,,,,,,,,,,,,,,,,,,,,,,,
1649271042.586608,1649271042.598157,23.000000,0.000000,4240.384766,4242.436035,4232.820313,4232.820313,4257.307617,4247.051270,4251.025879,4249.487305,4269.230957,4259.102539,4263.077148,4246.025879,4262.692383,4234.743652,0.000000,1.000000,15.000000,,,,0.000000,4.000000,4.000000,4.000000,4.000000,4.000000,4.000000,4.000000,4.000000,4.000000,4.000000,4.000000,4.000000,4.000000,4.000000,100.000000,,,,,,,,,,,,,,,,,,,,,,,,,,,,
1649271042.594411,1649271042.606062,24.000000,0.000000,4237.692383,4238.589844,4233.974121,4233.333496,4250.384766,4243.205078,4247.307617,4241.153809,4269.102539,4260.641113,4254.615234,4240.000000,4262.179688,4234.743652,0.000000,1.000000,15.000000,,,,0.000000,4.000000,4.000000,4.000000,4.000000,4.000000,4.000000,4.000000,4.000000,4.000000,4.000000,4.000000,4.000000,4.000000,4.000000,100.000000,,,,,,,,,,,,,,,,,6.000000,0.000000,0.636346,-0.375061,-0.586365,-0.332520,1.008804,-0.065919,0.022461,-27.664606,-93.760590,-1.644923
1649271042.602213,1649271042.613866,25.000000,0.000000,4229.615234,4231.538574,4229.230957,4227.563965,4246.538574,4247.820313,4245.512695,4232.692383,4264.230957,4239.102539,4241.922852,4233.205078,4254.487305,4228.333496,0.000000,1.000000,15.000000,,,,0.000000,4.000000,4.000000,4.000000,4.000000,4.000000,4.000000,4.000000,4.000000,4.000000,4.000000,4.000000,4.000000,4.000000,4.000000,100.000000,,,,,,,,,,,,,,,,,,,,,,,,,,,,
1649271042.610016,1649271042.621770,26.000000,0.000000,4239.358887,4235.641113,4233.717773,4230.000000,4256.282227,4259.358887,4261.025879,4253.717773,4265.128418,4252.436035,4255.897461,4244.615234,4263.333496,4236.410156,0.000000,1.000000,15.000000,,,,0.000000,4.000000,4.000000,4.000000,4.000000,4.000000,4.000000,4.000000,4.000000,4.000000,4.000000,4.000000,4.000000,4.000000,4.000000,100.000000,,,,,,,,,,,,,,,,,,,,,,,,,,,,
1649271042.617818,1649271042.629575,27.000000,0.000000,4252.563965,4255.256348,4246.282227,4245.769043,4268.461426,4258.077148,4266.538574,4264.230957,4256.282227,4272.179688,4268.846191,4255.000000,4278.717773,4248.589844,0.000000,1.000000,15.000000,,,,0.000000,4.000000,4.000000,4.000000,4.000000,4.000000,4.000000,4.000000,4.000000,4.000000,4.000000,4.000000,4.000000,4.000000,4.000000,100.000000,,,,,,,,,,,,,,,,,,,,,,,,,,,,
1649271042.625620,1649271042.637479,28.000000,0.000000,4247.948730,4261.282227,4247.948730,4251.538574,4260.512695,4249.743652,4250.128418,4250.641113,4241.282227,4250.128418,4261.410156,4249.487305,4277.820313,4246.538574,0.000000,1.000000,15.000000,,,,0.000000,4.000000,4.000000,4.000000,4.000000,4.000000,4.000000,4.000000,4.000000,4.000000,4.000000,4.000000,4.000000,4.000000,4.000000,100.000000,,,,,,,,,,,,,,,,,7.000000,0.000000,0.636412,-0.375244,-0.586487,-0.331970,1.015152,-0.053712,0.020996,-27.664606,-94.508278,-0.897231
1649271042.633422,1649271042.645284,29.000000,0.000000,4246.025879,4253.717773,4246.153809,4248.205078,4245.641113,4248.717773,4245.000000,4246.922852,4248.974121,4246.025879,4261.153809,4248.333496,4276.922852,4245.641113,0.000000,1.000000,15.000000,,,,0.000000,4.000000,4.000000,4.000000,4.000000,4.000000,4.000000,4.000000,4.000000,4.000000,4.000000,4.000000,4.000000,4.000000,4.000000,100.000000,,,,,,,,,,,,,,,,,,,,,,,,,,,,
1649271042.641225,1649271042.653188,30.000000,0.000000,4250.512695,4254.230957,4246.538574,4248.205078,4245.769043,4251.153809,4250.128418,4249.615234,4261.794922,4271.410156,4266.666504,4255.128418,4279.615234,4250.128418,0.000000,1.000000,15.000000,,,,0.000000,4.000000,4.000000,4.000000,4.000000,4.000000,4.000000,4.000000,4.000000,4.000000,4.000000,4.000000,4.000000,4.000000,4.000000,100.000000,,,,,,,,,,,,,,,,,,,,,,,,,,,,
1649271042.649027,1649271042.660992,31.000000,0.000000,4250.897461,4262.820313,4251.153809,4249.743652,4257.179688,4256.282227,4251.794922,4254.743652,4257.948730,4268.077148,4265.000000,4261.794922,4278.846191,4251.666504,0.000000,1.000000,15.000000,,,,0.000000,4.000000,4.000000,4.000000,4.000000,4.000000,4.000000,4.000000,4.000000,4.000000,4.000000,4.000000,4.000000,4.000000,4.000000,100.000000,,,,,,,,,,,,,,,,,,,,,,,,,,,,
1649271042.656829,1649271042.668896,32.000000,0.000000,4248.974121,4261.282227,4257.179688,4249.358887,4251.538574,4259.102539,4256.794922,4262.820313,4260.128418,4246.282227,4264.615234,4260.769043,4276.282227,4250.897461,0.000000,1.000000,15.000000,,,,0.000000,4.000000,4.000000,4.000000,4.000000,4.000000,4.000000,4.000000,4.000000,4.000000,4.000000,4.000000,4.000000,4.000000,4.000000,100.000000,,,,,,,,,,,,,,,,,8.000000,0.000000,0.636335,-0.375061,-0.586792,-0.331787,1.002945,-0.059571,0.043946,-29.010452,-94.657814,-2.093538
1649271042.664632,1649271042.676701,33.000000,0.000000,4250.000000,4252.820313,4253.077148,4248.205078,4233.333496,4252.051270,4255.897461,4255.641113,4269.871582,4240.897461,4264.871582,4252.820313,4274.102539,4249.743652,0.000000,1.000000,15.000000,,,,0.000000,4.000000,4.000000,4.000000,4.000000,4.000000,4.000000,4.000000,4.000000,4.000000,4.000000,4.000000,4.000000,4.000000,4.000000,100.000000,,,,,,,,,,,,,,,,,,,,,,,,,,,,
1649271042.672434,1649271042.684605,34.000000,0.000000,4255.256348,4251.922852,4247.692383,4247.436035,4237.179688,4243.589844,4247.307617,4249.230957,4270.128418,4258.333496,4265.000000,4254.230957,4276.922852,4251.153809,0.000000,1.000000,15.000000,,,,0.000000,4.000000,4.000000,4.000000,4.000000,4.000000,4.000000,4.000000,4.000000,4.000000,4.000000,4.000000,4.000000,4.000000,4.000000,100.000000,,,,,,,,,,,,,,,,,,,,,,,,,,,,
1649271042.680237,1649271042.692410,35.000000,0.000000,4253.717773,4251.410156,4249.230957,4244.230957,4248.717773,4241.794922,4245.641113,4253.205078,4267.051270,4255.512695,4266.410156,4255.256348,4276.025879,4250.384766,0.000000,1.000000,15.000000,,,,0.000000,4.000000,4.000000,4.000000,4.000000,4.000000,4.000000,4.000000,4.000000,4.000000,4.000000,4.000000,4.000000,4.000000,4.000000,100.000000,,,,,,,,,,,,,,,,,,,,,,,,,,,,
1649271042.688039,1649271042.700314,36.000000,0.000000,4250.512695,4250.641113,4251.794922,4243.589844,4241.025879,4243.589844,4248.461426,4251.025879,4266.538574,4226.538574,4264.230957,4249.487305,4269.615234,4248.205078,0.000000,1.000000,15.000000,,,,0.000000,4.000000,4.000000,4.000000,4.000000,4.000000,4.000000,4.000000,4.000000,4.000000,4.000000,4.000000,4.000000,4.000000,4.000000,100.000000,,,,,,,,,,,,,,,,,9.000000,0.000000,0.636340,-0.374695,-0.587158,-0.331543,1.011734,-0.061524,0.037598,-30.206760,-93.910126,-2.093538
1649271042.695841,1649271042.708118,37.000000,0.000000,4255.512695,4254.871582,4254.743652,4246.025879,4228.589844,4248.846191,4248.205078,4253.077148,4261.538574,4232.563965,4260.000000,4251.794922,4272.563965,4256.410156,0.000000,1.000000,15.000000,,,,0.000000,4.000000,4.000000,4.000000,4.000000,4.000000,4.000000,4.000000,4.000000,4.000000,4.000000,4.000000,4.000000,4.000000,4.000000,100.000000,,,,,,,,,,,,,,,,,,,,,,,,,,,,
1649271042.703644,1649271042.716023,38.000000,0.000000,4261.025879,4262.948730,4261.922852,4250.769043,4232.692383,4251.666504,4250.512695,4266.538574,4263.333496,4268.333496,4266.025879,4262.692383,4281.538574,4265.641113,0.000000,1.000000,15.000000,,,,0.000000,4.000000,4.000000,4.000000,4.000000,4.000000,4.000000,4.000000,4.000000,4.000000,4.000000,4.000000,4.000000,4.000000,4.000000,100.000000,,,,,,,,,,,,,,,,,,,,,,,,,,,,
1649271042.711446,1649271042.723827,39.000000,0.000000,4261.666504,4267.563965,4266.410156,4255.897461,4241.153809,4249.743652,4254.102539,4272.563965,4273.333496,4274.487305,4277.179688,4266.153809,4284.871582,4263.589844,0.000000,1.000000,15.000000,,,,0.000000,4.000000,4.000000,4.000000,4.000000,4.000000,4.000000,4.000000,4.000000,4.000000,4.000000,4.000000,4.000000,4.000000,4.000000,100.000000,,,,,,,,,,,,,,,,,,,,,,,,,,,,
1649271042.719248,1649271042.731731,40.000000,0.000000,4260.384766,4259.871582,4263.461426,4252.692383,4237.307617,4249.230957,4246.666504,4259.487305,4271.538574,4254.487305,4272.820313,4256.666504,4280.256348,4258.077148,0.000000,1.000000,15.000000,,,,0.000000,4.000000,4.000000,4.000000,4.000000,4.000000,4.000000,4.000000,4.000000,4.000000,4.000000,4.000000,4.000000,4.000000,4.000000,100.000000,,,,,,,,,,,,,,,,,10.000000,0.000000,0.636069,-0.374634,-0.587524,-0.331482,1.001480,-0.062989,0.025879,-28.561836,-95.854126,-2.542153
1649271042.727051,1649271042.739536,41.000000,0.000000,4259.358887,4248.589844,4260.000000,4243.461426,4229.358887,4251.282227,4244.102539,4251.282227,4267.436035,4246.538574,4259.871582,4253.717773,4274.230957,4259.102539,0.000000,1.000000,15.000000,,,,0.000000,4.000000,4.000000,4.000000,4.000000,4.000000,4.000000,4.000000,4.000000,4.000000,4.000000,4.000000,4.000000,4.000000,4.000000,100.000000,,,,,,,,,,,,,,,,,,,,,,,,,,,,
1649271042.734853,1649271042.747440,42.000000,0.000000,4262.436035,4247.179688,4263.846191,4243.717773,4230.384766,4252.436035,4254.487305,4262.563965,4284.487305,4255.000000,4262.692383,4260.769043,4278.461426,4263.974121,0.000000,1.000000,15.000000,,,,0.000000,4.000000,4.000000,4.000000,4.000000,4.000000,4.000000,4.000000,4.000000,4.000000,4.000000,4.000000,4.000000,4.000000,4.000000,100.000000,,,,,,,,,,,,,,,,,,,,,,,,,,,,
1649271042.742655,1649271042.755244,43.000000,0.000000,4260.256348,4252.820313,4261.794922,4248.333496,4236.410156,4248.846191,4254.487305,4264.743652,4292.948730,4251.410156,4267.179688,4257.051270,4278.333496,4257.820313,0.000000,1.000000,15.000000,,,,0.000000,4.000000,4.000000,4.000000,4.000000,4.000000,4.000000,4.000000,4.000000,4.000000,4.000000,4.000000,4.000000,4.000000,4.000000,100.000000,,,,,,,,,,,,,,,,,,,,,,,,,,,,
1649271042.750458,1649271042.762949,44.000000,0.000000,4247.948730,4248.846191,4248.846191,4243.461426,4232.692383,4245.000000,4245.128418,4248.077148,4275.128418,4237.563965,4258.589844,4243.333496,4265.897461,4246.666504,0.000000,1.000000,15.000000,,,,0.000000,4.000000,4.000000,4.000000,4.000000,4.000000,4.000000,4.000000,4.000000,4.000000,4.000000,4.000000,4.000000,4.000000,4.000000,100.000000,,,,,,,,,,,,,,,,,11.000000,0.000000,0.635589,-0.375000,-0.587708,-0.331665,1.001480,-0.057618,0.036133,-28.262760,-95.106430,-2.093538
1649271042.758260,1649271042.770853,45.000000,0.000000,4247.563965,4245.384766,4251.410156,4242.179688,4229.871582,4248.205078,4249.102539,4242.692383,4267.948730,4247.436035,4259.487305,4246.794922,4269.615234,4249.743652,0.000000,1.000000,15.000000,,,,0.000000,4.000000,4.000000,4.000000,4.000000,4.000000,4.000000,4.000000,4.000000,4.000000,4.000000,4.000000,4.000000,4.000000,4.000000,100.000000,,,,,,,,,,,,,,,,,,,,,,,,,,,,
1649271042.766063,1649271042.778657,46.000000,0.000000,4253.077148,4248.077148,4261.538574,4245.897461,4227.692383,4249.871582,4251.666504,4249.743652,4275.769043,4258.077148,4266.410156,4253.461426,4281.794922,4255.897461,0.000000,1.000000,15.000000,,,,0.000000,4.000000,4.000000,4.000000,4.000000,4.000000,4.000000,4.000000,4.000000,4.000000,4.000000,4.000000,4.000000,4.000000,4.000000,100.000000,,,,,,,,,,,,,,,,,,,,,,,,,,,,
1649271042.773865,1649271042.786462,47.000000,0.000000,4248.846191,4246.538574,4256.153809,4244.102539,4218.846191,4247.179688,4245.128418,4254.358887,4280.000000,4247.948730,4262.948730,4247.692383,4277.307617,4251.538574,0.000000,1.000000,15.000000,,,,0.000000,4.000000,4.000000,4.000000,4.000000,4.000000,4.000000,4.000000,4.000000,4.000000,4.000000,4.000000,4.000000,4.000000,4.000000,100.000000,,,,,,,,,,,,,,,,,,,,,,,,,,,,
1649271042.781667,1649271042.794166,48.000000,0.000000,4253.333496,4254.230957,4255.769043,4247.051270,4222.692383,4247.948730,4249.615234,4262.820313,4287.563965,4255.128418,4262.179688,4255.128418,4274.871582,4256.153809,0.000000,1.000000,15.000000,,,,0.000000,4.000000,4.000000,4.000000,4.000000,4.000000,4.000000,4.000000,4.000000,4.000000,4.000000,4.000000,4.000000,4.000000,4.000000,100.000000,,,,,,,,,,,,,,,,,12.000000,0.000000,0.634993,-0.375427,-0.587769,-0.332214,1.007340,-0.066407,0.020996,-28.412298,-94.508278,-2.691691
1649271042.789470,1649271042.801971,49.000000,0.000000,4261.922852,4262.179688,4266.538574,4251.025879,4231.538574,4250.128418,4255.000000,4264.358887,4295.769043,4267.820313,4268.205078,4266.666504,4280.256348,4266.025879,0.000000,1.000000,15.000000,,,,0.000000,4.000000,4.000000,4.000000,4.000000,4.000000,4.000000,4.000000,4.000000,4.000000,4.000000,4.000000,4.000000,4.000000,4.000000,100.000000,,,,,,,,,,,,,,,,,,,,,,,,,,,,
1649271042.797272,1649271042.809675,50.000000,0.000000,4252.179688,4251.410156,4260.128418,4245.256348,4222.948730,4250.384766,4248.205078,4258.205078,4293.333496,4261.794922,4265.384766,4255.256348,4276.282227,4255.512695,0.000000,1.000000,15.000000,,,,0.000000,4.000000,4.000000,4.000000,4.000000,4.000000,4.000000,4.000000,4.000000,4.000000,4.000000,4.000000,4.000000,4.000000,4.000000,100.000000,,,,,,,,,,,,,,,,,,,,,,,,,,,,
1649271042.805074,1649271042.817480,51.000000,0.000000,4242.436035,4242.948730,4248.589844,4242.307617,4214.871582,4251.410156,4246.153809,4260.128418,4291.922852,4257.307617,4259.487305,4245.128418,4272.307617,4244.358887,0.000000,1.000000,15.000000,,,,0.000000,4.000000,4.000000,4.000000,4.000000,4.000000,4.000000,4.000000,4.000000,4.000000,4.000000,4.000000,4.000000,4.000000,4.000000,100.000000,,,,,,,,,,,,,,,,,,,,,,,,,,,,
1649271042.812877,1649271042.825184,52.000000,0.000000,4253.589844,4249.358887,4256.794922,4246.666504,4220.384766,4248.589844,4249.102539,4261.794922,4295.000000,4256.794922,4264.102539,4256.153809,4276.794922,4253.717773,0.000000,1.000000,15.000000,,,,0.000000,4.000000,4.000000,4.000000,4.000000,4.000000,4.000000,4.000000,4.000000,4.000000,4.000000,4.000000,4.000000,4.000000,4.000000,100.000000,,,,,,,,,,,,,,,,,13.000000,0.000000,0.634811,-0.375793,-0.587524,-0.332581,1.010758,-0.043946,0.028809,-27.963684,-93.760590,-2.990768
1649271042.820679,1649271042.832988,53.000000,0.000000,4263.461426,4252.820313,4267.051270,4249.102539,4219.615234,4244.487305,4248.974121,4257.820313,4295.384766,4252.820313,4266.794922,4265.256348,4277.563965,4264.102539,0.000000,1.000000,15.000000,,,,0.000000,4.000000,4.000000,4.000000,4.000000,4.000000,4.000000,4.000000,4.000000,4.000000,4.000000,4.000000,4.000000,4.000000,4.000000,100.000000,,,,,,,,,,,,,,,,,,,,,,,,,,,,
1649271042.828481,1649271042.840692,54.000000,0.000000,4261.282227,4250.000000,4266.794922,4248.717773,4216.410156,4246.794922,4247.692383,4254.615234,4294.230957,4259.358887,4263.717773,4262.436035,4275.384766,4263.974121,0.000000,1.000000,15.000000,,,,0.000000,4.000000,4.000000,4.000000,4.000000,4.000000,4.000000,4.000000,4.000000,4.000000,4.000000,4.000000,4.000000,4.000000,4.000000,100.000000,,,,,,,,,,,,,,,,,,,,,,,,,,,,
1649271042.836284,1649271042.848496,55.000000,0.000000,4260.897461,4248.717773,4262.436035,4245.384766,4217.307617,4248.974121,4247.820313,4250.769043,4285.512695,4263.974121,4263.333496,4260.512695,4273.846191,4260.641113,0.000000,1.000000,15.000000,,,,0.000000,4.000000,4.000000,4.000000,4.000000,4.000000,4.000000,4.000000,4.000000,4.000000,4.000000,4.000000,4.000000,4.000000,4.000000,100.000000,,,,,,,,,,,,,,,,,,,,,,,,,,,,
1649271042.844086,1649271042.856201,56.000000,0.000000,4262.051270,4247.307617,4261.794922,4243.589844,4211.025879,4245.128418,4245.897461,4248.333496,4278.077148,4260.897461,4265.384766,4260.897461,4274.487305,4262.820313,0.000000,1.000000,15.000000,,,,0.000000,4.000000,4.000000,4.000000,4.000000,4.000000,4.000000,4.000000,4.000000,4.000000,4.000000,4.000000,4.000000,4.000000,4.000000,100.000000,,,,,,,,,,,,,,,,,14.000000,0.000000,0.634409,-0.375793,-0.587646,-0.333130,1.002457,-0.051270,0.023438,-28.262760,-93.910126,-1.794461
1649271042.851889,1649271042.864005,57.000000,0.000000,4260.000000,4248.077148,4262.692383,4245.384766,4207.436035,4244.743652,4244.743652,4254.358887,4280.512695,4265.000000,4267.307617,4262.051270,4279.230957,4265.384766,0.000000,1.000000,15.000000,,,,0.000000,4.000000,4.000000,4.000000,4.000000,4.000000,4.000000,4.000000,4.000000,4.000000,4.000000,4.000000,4.000000,4.000000,4.000000,100.000000,,,,,,,,,,,,,,,,,,,,,,,,,,,,
1649271042.859691,1649271042.871709,58.000000,0.000000,4258.589844,4246.282227,4261.410156,4240.000000,4208.461426,4246.282227,4244.743652,4263.077148,4278.461426,4262.436035,4265.256348,4263.333496,4281.282227,4262.820313,0.000000,1.000000,15.000000,,,,0.000000,4.000000,4.000000,4.000000,4.000000,4.000000,4.000000,4.000000,4.000000,4.000000,4.000000,4.000000,4.000000,4.000000,4.000000,100.000000,,,,,,,,,,,,,,,,,,,,,,,,,,,,
1649271042.867493,1649271042.879613,59.000000,0.000000,4262.820313,4246.282227,4262.692383,4238.974121,4203.589844,4243.333496,4244.358887,4262.948730,4277.948730,4252.692383,4265.000000,4265.000000,4281.025879,4263.077148,0.000000,1.000000,15.000000,,,,0.000000,4.000000,4.000000,4.000000,4.000000,4.000000,4.000000,4.000000,4.000000,4.000000,4.000000,4.000000,4.000000,4.000000,4.000000,100.000000,,,,,,,,,,,,,,,,,,,,,,,,,,,,
1649271042.875296,1649271042.887418,60.000000,0.000000,4260.769043,4249.871582,4263.077148,4245.897461,4202.692383,4245.000000,4243.333496,4255.128418,4293.077148,4249.358887,4267.436035,4265.000000,4279.615234,4264.230957,0.000000,1.000000,15.000000,,,,0.000000,4.000000,4.000000,4.000000,4.000000,4.000000,4.000000,4.000000,4.000000,4.000000,4.000000,4.000000,4.000000,4.000000,4.000000,100.000000,,,,,,,,,,,,,,,,,15.000000,0.000000,0.634393,-0.375671,-0.587708,-0.333191,1.000015,-0.058106,0.018067,-29.010452,-93.910126,-2.093538
1649271042.883098,1649271042.895322,61.000000,0.000000,4250.384766,4246.025879,4253.846191,4241.025879,4205.256348,4248.077148,4238.461426,4246.538574,4301.025879,4243.846191,4258.333496,4255.641113,4263.333496,4252.436035,0.000000,1.000000,15.000000,,,,0.000000,4.000000,4.000000,4.000000,4.000000,4.000000,4.000000,4.000000,4.000000,4.000000,4.000000,4.000000,4.000000,4.000000,4.000000,100.000000,,,,,,,,,,,,,,,,,,,,,,,,,,,,
1649271042.890900,1649271042.903127,62.000000,0.000000,4247.179688,4243.461426,4245.769043,4233.589844,4203.077148,4243.589844,4232.563965,4243.333496,4285.000000,4244.358887,4245.641113,4246.410156,4244.871582,4243.461426,0.000000,1.000000,15.000000,,,,0.000000,4.000000,4.000000,4.000000,4.000000,4.000000,4.000000,4.000000,4.000000,4.000000,4.000000,4.000000,4.000000,4.000000,4.000000,100.000000,,,,,,,,,,,,,,,,,,,,,,,,,,,,
1649271042.898703,1649271042.911031,63.000000,0.000000,4250.000000,4248.589844,4250.769043,4241.794922,4207.820313,4241.794922,4234.615234,4246.153809,4277.051270,4246.410156,4247.692383,4254.102539,4251.794922,4251.538574,0.000000,1.000000,15.000000,,,,0.000000,4.000000,4.000000,4.000000,4.000000,4.000000,4.000000,4.000000,4.000000,4.000000,4.000000,4.000000,4.000000,4.000000,4.000000,100.000000,,,,,,,,,,,,,,,,,,,,,,,,,,,,
1649271042.906505,1649271042.918935,64.000000,0.000000,4248.717773,4249.230957,4254.871582,4249.743652,4210.512695,4245.128418,4242.436035,4250.000000,4290.384766,4235.897461,4251.922852,4260.256348,4267.692383,4254.743652,3531.000000,1.000000,15.000000,,,,0.000000,4.000000,4.000000,4.000000,4.000000,4.000000,4.000000,4.000000,4.000000,4.000000,4.000000,4.000000,4.000000,4.000000,4.000000,100.000000,,,,,,,,,,,,,,,,,16.000000,0.000000,0.634289,-0.375671,-0.587646,-0.333496,1.021988,-0.053223,0.032715,-28.561836,-95.106430,-3.588922
1649271042.914307,1649271042.926740,65.000000,0.000000,4249.358887,4248.589844,4251.410156,4245.512695,4205.384766,4247.692383,4244.487305,4251.794922,4293.077148,4227.948730,4248.846191,4253.461426,4265.897461,4250.769043,3600.000000,1.000000,15.000000,,,,0.000000,4.000000,4.000000,4.000000,4.000000,4.000000,4.000000,4.000000,4.000000,4.000000,4.000000,4.000000,4.000000,4.000000,4.000000,100.000000,,,,,,,,,,,,,,,,,,,,,,,,,,,,
1649271042.922110,1649271042.934544,66.000000,0.000000,4247.820313,4244.615234,4248.333496,4236.153809,4204.487305,4245.256348,4237.692383,4246.794922,4271.538574,4235.641113,4245.897461,4246.666504,4255.641113,4246.153809,3534.000000,1.000000,15.000000,,,,0.000000,4.000000,4.000000,4.000000,4.000000,4.000000,4.000000,4.000000,4.000000,4.000000,4.000000,4.000000,4.000000,4.000000,4.000000,100.000000,,,,,,,,,,,,,,,,,,,,,,,,,,,,
1649271042.929912,1649271042.942448,67.000000,0.000000,4236.025879,4232.563965,4242.179688,4228.717773,4204.487305,4237.051270,4231.153809,4233.974121,4254.615234,4239.871582,4238.077148,4242.051270,4246.153809,4234.358887,3593.000000,1.000000,15.000000,,,,0.000000,4.000000,4.000000,4.000000,4.000000,4.000000,4.000000,4.000000,4.000000,4.000000,4.000000,4.000000,4.000000,4.000000,4.000000,100.000000,,,,,,,,,,,,,,,,,,,,,,,,,,,,
1649271042.937714,1649271042.950253,68.000000,0.000000,4234.487305,4235.641113,4242.820313,4235.000000,4206.025879,4236.025879,4236.025879,4236.153809,4265.128418,4250.384766,4235.512695,4242.563965,4248.333496,4234.230957,3631.000000,1.000000,15.000000,,,,0.000000,4.000000,4.000000,4.000000,4.000000,4.000000,4.000000,4.000000,4.000000,4.000000,4.000000,4.000000,4.000000,4.000000,4.000000,100.000000,,,,,,,,,,,,,,,,,17.000000,0.000000,0.634347,-0.375793,-0.587402,-0.333679,1.000015,-0.057618,0.027344,-27.664606,-94.209198,-1.196307
1649271042.945517,1649271042.957957,69.000000,0.000000,4249.358887,4252.179688,4255.256348,4249.615234,4209.871582,4249.230957,4248.205078,4260.512695,4291.538574,4267.948730,4249.871582,4252.179688,4265.384766,4251.922852,3592.000000,1.000000,15.000000,,,,0.000000,4.000000,4.000000,4.000000,4.000000,4.000000,4.000000,4.000000,4.000000,4.000000,4.000000,4.000000,4.000000,4.000000,4.000000,100.000000,,,,,,,,,,,,,,,,,,,,,,,,,,,,
1649271042.953319,1649271042.965761,70.000000,0.000000,4252.692383,4251.794922,4256.410156,4249.358887,4206.410156,4252.051270,4248.461426,4268.333496,4310.897461,4254.230957,4252.692383,4254.230957,4262.307617,4253.846191,3558.000000,1.000000,15.000000,,,,0.000000,4.000000,4.000000,4.000000,4.000000,4.000000,4.000000,4.000000,4.000000,4.000000,4.000000,4.000000,4.000000,4.000000,4.000000,100.000000,,,,,,,,,,,,,,,,,,,,,,,,,,,,
1649271042.961121,1649271042.973466,71.000000,0.000000,4243.461426,4240.897461,4243.205078,4238.717773,4198.461426,4245.512695,4243.205078,4256.410156,4318.077148,4236.794922,4241.025879,4244.743652,4242.563965,4241.025879,3599.000000,1.000000,15.000000,,,,0.000000,4.000000,4.000000,4.000000,4.000000,4.000000,4.000000,4.000000,4.000000,4.000000,4.000000,4.000000,4.000000,4.000000,4.000000,100.000000,,,,,,,,,,,,,,,,,,,,,,,,,,,,
1649271042.968924,1649271042.981370,72.000000,0.000000,4246.666504,4242.051270,4247.436035,4239.230957,4204.871582,4254.871582,4248.077148,4266.666504,4328.461426,4251.410156,4247.820313,4246.666504,4248.589844,4246.538574,1631.000000,1.000000,15.000000,,,,0.000000,4.000000,4.000000,4.000000,4.000000,4.000000,4.000000,4.000000,4.000000,4.000000,4.000000,4.000000,4.000000,4.000000,4.000000,100.000000,1.000000,100.000000,4.000000,4.000000,4.000000,4.000000,4.000000,4.000000,4.000000,4.000000,4.000000,4.000000,4.000000,4.000000,4.000000,4.000000,18.000000,0.000000,0.634316,-0.375916,-0.587219,-0.333923,1.009781,-0.055665,0.023438,-29.010452,-95.405510,-2.093538
1649271042.976726,1649271042.989175,73.000000,0.000000,4258.077148,4249.358887,4262.307617,4248.717773,4217.692383,4260.512695,4251.922852,4283.333496,4334.871582,4249.358887,4259.487305,4260.384766,4264.743652,4256.666504,3611.000000,1.000000,15.000000,,,,0.000000,4.000000,4.000000,4.000000,4.000000,4.000000,4.000000,4.000000,4.000000,4.000000,4.000000,4.000000,4.000000,4.000000,4.000000,100.000000,,,,,,,,,,,,,,,,,,,,,,,,,,,,
1649271042.984528,1649271042.996979,74.000000,0.000000,4255.256348,4250.000000,4257.436035,4247.948730,4215.641113,4247.563965,4245.000000,4276.025879,4316.410156,4240.897461,4250.512695,4259.487305,4260.000000,4249.487305,3599.000000,1.000000,15.000000,,,,0.000000,4.000000,4.000000,4.000000,4.000000,4.000000,4.000000,4.000000,4.000000,4.000000,4.000000,4.000000,4.000000,4.000000,4.000000,100.000000,,,,,,,,,,,,,,,,,,,,,,,,,,,,
1649271042.992331,1649271043.004684,75.000000,0.000000,4247.179688,4244.743652,4251.282227,4242.692383,4201.666504,4242.307617,4242.307617,4273.461426,4294.743652,4273.077148,4245.897461,4249.743652,4256.922852,4247.948730,3596.000000,1.000000,15.000000,,,,0.000000,4.000000,4.000000,4.000000,4.000000,4.000000,4.000000,4.000000,4.000000,4.000000,4.000000,4.000000,4.000000,4.000000,4.000000,100.000000,,,,,,,,,,,,,,,,,,,,,,,,,,,,
1649271043.000133,1649271043.012488,76.000000,0.000000,4247.948730,4241.794922,4260.384766,4240.769043,4197.179688,4250.769043,4248.077148,4280.897461,4294.358887,4285.641113,4252.948730,4252.820313,4263.333496,4255.641113,3542.000000,1.000000,15.000000,,,,0.000000,4.000000,4.000000,4.000000,4.000000,4.000000,4.000000,4.000000,4.000000,4.000000,4.000000,4.000000,4.000000,4.000000,4.000000,100.000000,,,,,,,,,,,,,,,,,19.000000,0.000000,0.634086,-0.375977,-0.587219,-0.334290,0.997086,-0.066896,0.021973,-26.767376,-94.508278,-2.691691
1649271043.007936,1649271043.020192,77.000000,0.000000,4253.333496,4244.487305,4264.230957,4237.436035,4206.410156,4252.436035,4248.717773,4272.820313,4296.794922,4251.025879,4252.436035,4261.538574,4260.128418,4255.384766,3503.000000,1.000000,15.000000,,,,0.000000,4.000000,4.000000,4.000000,4.000000,4.000000,4.000000,4.000000,4.000000,4.000000,4.000000,4.000000,4.000000,4.000000,4.000000,100.000000,,,,,,,,,,,,,,,,,,,,,,,,,,,,
1649271043.015738,1649271043.027996,78.000000,0.000000,4254.230957,4243.589844,4258.333496,4234.871582,4206.025879,4244.743652,4243.205078,4257.820313,4291.666504,4237.820313,4244.743652,4258.205078,4255.128418,4251.922852,3599.000000,1.000000,15.000000,,,,0.000000,4.000000,4.000000,4.000000,4.000000,4.000000,4.000000,4.000000,4.000000,4.000000,4.000000,4.000000,4.000000,4.000000,4.000000,100.000000,,,,,,,,,,,,,,,,,,,,,,,,,,,,
1649271043.023540,1649271043.035701,79.000000,0.000000,4252.692383,4244.230957,4261.025879,4241.922852,4197.307617,4248.077148,4245.128418,4267.820313,4296.282227,4252.051270,4249.743652,4256.538574,4261.282227,4257.820313,3596.000000,1.000000,15.000000,,,,0.000000,4.000000,4.000000,4.000000,4.000000,4.000000,4.000000,4.000000,4.000000,4.000000,4.000000,4.000000,4.000000,4.000000,4.000000,100.000000,,,,,,,,,,,,,,,,,,,,,,,,,,,,
1649271043.031343,1649271043.043605,80.000000,0.000000,4252.051270,4250.384766,4263.846191,4251.153809,4201.025879,4260.769043,4252.436035,4283.846191,4298.205078,4252.563965,4261.025879,4263.717773,4264.230957,4260.897461,3542.000000,1.000000,15.000000,,,,0.000000,4.000000,4.000000,4.000000,4.000000,4.000000,4.000000,4.000000,4.000000,4.000000,4.000000,4.000000,4.000000,4.000000,4.000000,100.000000,,,,,,,,,,,,,,,,,20.000000,0.000000,0.633777,-0.376282,-0.587219,-0.334534,1.000504,-0.065919,0.034180,-29.907682,-94.807358,-3.439384
1649271043.039145,1649271043.051409,81.000000,0.000000,4250.384766,4249.487305,4253.205078,4246.922852,4212.820313,4262.179688,4249.487305,4271.794922,4282.051270,4247.307617,4251.282227,4258.333496,4253.974121,4250.256348,3503.000000,1.000000,15.000000,,,,0.000000,4.000000,4.000000,4.000000,4.000000,4.000000,4.000000,4.000000,4.000000,4.000000,4.000000,4.000000,4.000000,4.000000,4.000000,100.000000,,,,,,,,,,,,,,,,,,,,,,,,,,,,
1649271043.046947,1649271043.059214,82.000000,0.000000,4249.615234,4243.974121,4249.743652,4236.666504,4212.820313,4250.897461,4242.307617,4254.871582,4272.948730,4244.230957,4232.436035,4249.230957,4245.512695,4245.128418,3599.000000,1.000000,15.000000,,,,0.000000,4.000000,4.000000,4.000000,4.000000,4.000000,4.000000,4.000000,4.000000,4.000000,4.000000,4.000000,4.000000,4.000000,4.000000,100.000000,,,,,,,,,,,,,,,,,,,,,,,,,,,,
1649271043.054750,1649271043.066918,83.000000,0.000000,4253.717773,4243.717773,4258.846191,4237.436035,4205.641113,4246.922852,4243.974121,4259.743652,4281.153809,4234.871582,4234.487305,4254.230957,4245.384766,4254.358887,3596.000000,1.000000,15.000000,,,,0.000000,4.000000,4.000000,4.000000,4.000000,4.000000,4.000000,4.000000,4.000000,4.000000,4.000000,4.000000,4.000000,4.000000,4.000000,100.000000,,,,,,,,,,,,,,,,,,,,,,,,,,,,
1649271043.062552,1649271043.074822,84.000000,0.000000,4261.794922,4246.666504,4263.974121,4245.769043,4207.692383,4250.128418,4247.179688,4269.102539,4283.205078,4231.922852,4244.230957,4260.256348,4248.077148,4260.384766,3542.000000,1.000000,15.000000,,,,0.000000,4.000000,4.000000,4.000000,4.000000,4.000000,4.000000,4.000000,4.000000,4.000000,4.000000,4.000000,4.000000,4.000000,4.000000,100.000000,,,,,,,,,,,,,,,,,21.000000,0.000000,0.633474,-0.376587,-0.587280,-0.334656,1.007828,-0.050782,0.026856,-27.664606,-94.807358,-2.243076
1649271043.070354,1649271043.082627,85.000000,0.000000,4260.897461,4247.692383,4262.179688,4247.563965,4213.205078,4248.717773,4244.487305,4268.333496,4277.179688,4234.871582,4239.487305,4260.256348,4246.282227,4254.871582,3503.000000,1.000000,15.000000,,,,0.000000,4.000000,4.000000,4.000000,4.000000,4.000000,4.000000,4.000000,4.000000,4.000000,4.000000,4.000000,4.000000,4.000000,4.000000,100.000000,,,,,,,,,,,,,,,,,,,,,,,,,,,,
1649271043.078157,1649271043.090531,86.000000,0.000000,4249.358887,4246.025879,4257.179688,4240.897461,4207.563965,4243.461426,4234.743652,4257.307617,4274.487305,4231.666504,4231.025879,4255.512695,4234.615234,4247.563965,3599.000000,1.000000,15.000000,,,,0.000000,4.000000,4.000000,4.000000,4.000000,4.000000,4.000000,4.000000,4.000000,4.000000,4.000000,4.000000,4.000000,4.000000,4.000000,100.000000,,,,,,,,,,,,,,,,,,,,,,,,,,,,
1649271043.085959,1649271043.098335,87.000000,0.000000,4248.077148,4244.358887,4253.846191,4238.333496,4196.025879,4241.410156,4228.717773,4248.717773,4278.589844,4227.820313,4234.871582,4251.025879,4230.256348,4247.948730,3596.000000,1.000000,15.000000,,,,0.000000,4.000000,4.000000,4.000000,4.000000,4.000000,4.000000,4.000000,4.000000,4.000000,4.000000,4.000000,4.000000,4.000000,4.000000,100.000000,,,,,,,,,,,,,,,,,,,,,,,,,,,,
1649271043.093762,1649271043.106240,88.000000,0.000000,4259.102539,4246.922852,4258.461426,4243.333496,4199.871582,4247.820313,4239.102539,4257.820313,4288.589844,4240.128418,4245.897461,4256.282227,4240.384766,4255.897461,3542.000000,1.000000,15.000000,,,,0.000000,4.000000,4.000000,4.000000,4.000000,4.000000,4.000000,4.000000,4.000000,4.000000,4.000000,4.000000,4.000000,4.000000,4.000000,100.000000,,,,,,,,,,,,,,,,,22.000000,0.000000,0.633091,-0.377014,-0.587280,-0.334900,1.000992,-0.062989,0.032715,-28.262760,-94.358742,-3.289845
1649271043.101564,1649271043.114044,89.000000,0.000000,4266.922852,4252.692383,4267.051270,4251.666504,4216.794922,4253.717773,4249.230957,4271.666504,4297.820313,4251.025879,4252.692383,4266.794922,4246.922852,4262.307617,3503.000000,1.000000,15.000000,,,,0.000000,4.000000,4.000000,4.000000,4.000000,4.000000,4.000000,4.000000,4.000000,4.000000,4.000000,4.000000,4.000000,4.000000,4.000000,100.000000,,,,,,,,,,,,,,,,,,,,,,,,,,,,
1649271043.109366,1649271043.121948,90.000000,0.000000,4258.461426,4250.512695,4260.897461,4251.153809,4219.871582,4248.333496,4237.820313,4265.769043,4293.717773,4234.871582,4245.512695,4262.692383,4241.666504,4254.358887,3599.000000,1.000000,15.000000,,,,0.000000,4.000000,4.000000,4.000000,4.000000,4.000000,4.000000,4.000000,4.000000,4.000000,4.000000,4.000000,4.000000,4.000000,4.000000,100.000000,,,,,,,,,,,,,,,,,,,,,,,,,,,,
1649271043.117169,1649271043.129753,91.000000,0.000000,4250.897461,4244.487305,4249.102539,4242.307617,4203.589844,4244.743652,4228.846191,4258.461426,4284.102539,4226.282227,4238.717773,4255.641113,4242.563965,4246.666504,3596.000000,1.000000,15.000000,,,,0.000000,4.000000,4.000000,4.000000,4.000000,4.000000,4.000000,4.000000,4.000000,4.000000,4.000000,4.000000,4.000000,4.000000,4.000000,100.000000,,,,,,,,,,,,,,,,,,,,,,,,,,,,
1649271043.124971,1649271043.137557,92.000000,0.000000,4255.384766,4246.922852,4249.102539,4244.487305,4199.102539,4251.922852,4239.615234,4266.666504,4276.153809,4243.846191,4243.333496,4258.974121,4250.256348,4251.410156,3542.000000,1.000000,15.000000,,,,0.000000,4.000000,4.000000,4.000000,4.000000,4.000000,4.000000,4.000000,4.000000,4.000000,4.000000,4.000000,4.000000,4.000000,4.000000,100.000000,,,,,,,,,,,,,,,,,23.000000,0.000000,0.632711,-0.377380,-0.587280,-0.335205,1.015152,-0.060548,0.040040,-27.066454,-95.405510,-4.336614
1649271043.132773,1649271043.145361,93.000000,0.000000,4253.333496,4248.333496,4249.487305,4247.051270,4207.948730,4249.358887,4241.410156,4267.563965,4272.692383,4256.282227,4243.205078,4253.333496,4247.436035,4250.384766,3503.000000,1.000000,15.000000,,,,0.000000,4.000000,4.000000,4.000000,4.000000,4.000000,4.000000,4.000000,4.000000,4.000000,4.000000,4.000000,4.000000,4.000000,4.000000,100.000000,,,,,,,,,,,,,,,,,,,,,,,,,,,,
1649271043.140576,1649271043.153066,94.000000,0.000000,4244.358887,4242.692383,4245.128418,4240.000000,4203.077148,4236.666504,4228.205078,4262.179688,4283.461426,4255.897461,4241.538574,4244.102539,4242.179688,4244.487305,3599.000000,1.000000,15.000000,,,,0.000000,4.000000,4.000000,4.000000,4.000000,4.000000,4.000000,4.000000,4.000000,4.000000,4.000000,4.000000,4.000000,4.000000,4.000000,100.000000,,,,,,,,,,,,,,,,,,,,,,,,,,,,
1649271043.148378,1649271043.160870,95.000000,0.000000,4246.794922,4243.461426,4247.051270,4240.128418,4197.820313,4245.384766,4232.563965,4271.922852,4296.922852,4256.282227,4250.512695,4249.743652,4251.666504,4248.333496,3596.000000,1.000000,15.000000,,,,0.000000,4.000000,4.000000,4.000000,4.000000,4.000000,4.000000,4.000000,4.000000,4.000000,4.000000,4.000000,4.000000,4.000000,4.000000,100.000000,,,,,,,,,,,,,,,,,,,,,,,,,,,,
1649271043.156180,1649271043.168575,96.000000,0.000000,4252.179688,4250.512695,4250.897461,4249.230957,4211.666504,4263.077148,4246.025879,4280.897461,4295.769043,4248.333496,4255.256348,4253.077148,4259.615234,4251.410156,3542.000000,1.000000,15.000000,,,,0.000000,4.000000,4.000000,4.000000,4.000000,4.000000,4.000000,4.000000,4.000000,4.000000,4.000000,4.000000,4.000000,4.000000,4.000000,100.000000,,,,,,,,,,,,,,,,,24.000000,0.000000,0.632695,-0.377747,-0.586853,-0.335571,1.006851,-0.050294,0.042969,-27.963684,-94.508278,-1.196307
1649271043.163983,1649271043.176379,97.000000,0.000000,4247.692383,4250.641113,4247.948730,4249.615234,4220.256348,4257.563965,4241.410156,4275.769043,4291.025879,4244.871582,4247.051270,4244.615234,4249.615234,4246.922852,3503.000000,1.000000,15.000000,,,,0.000000,4.000000,4.000000,4.000000,4.000000,4.000000,4.000000,4.000000,4.000000,4.000000,4.000000,4.000000,4.000000,4.000000,4.000000,100.000000,,,,,,,,,,,,,,,,,,,,,,,,,,,,
1649271043.171785,1649271043.184084,98.000000,0.000000,4246.025879,4249.102539,4244.358887,4245.512695,4208.589844,4246.153809,4232.051270,4270.512695,4295.512695,4259.615234,4242.692383,4249.230957,4242.307617,4245.000000,3599.000000,1.000000,15.000000,,,,0.000000,4.000000,4.000000,4.000000,4.000000,4.000000,4.000000,4.000000,4.000000,4.000000,4.000000,4.000000,4.000000,4.000000,4.000000,100.000000,,,,,,,,,,,,,,,,,,,,,,,,,,,,
1649271043.179587,1649271043.191888,99.000000,0.000000,4250.897461,4252.436035,4249.358887,4250.512695,4201.794922,4248.461426,4233.717773,4271.025879,4299.358887,4264.615234,4247.307617,4265.897461,4250.384766,4249.615234,3596.000000,1.000000,15.000000,,,,0.000000,4.000000,4.000000,4.000000,4.000000,4.000000,4.000000,4.000000,4.000000,4.000000,4.000000,4.000000,4.000000,4.000000,4.000000,100.000000,,,,,,,,,,,,,,,,,,,,,,,,,,,,
1649271043.187390,1649271043.199593,100.000000,0.000000,4249.743652,4250.384766,4249.615234,4250.897461,4204.743652,4248.205078,4233.205078,4261.794922,4291.794922,4252.051270,4243.461426,4269.487305,4252.179688,4249.871582,3542.000000,1.000000,15.000000,,,,0.000000,4.000000,4.000000,4.000000,4.000000,4.000000,4.000000,4.000000,4.000000,4.000000,4.000000,4.000000,4.000000,4.000000,4.000000,100.000000,,,,,,,,,,,,,,,,,25.000000,0.000000,0.632707,-0.377808,-0.586731,-0.335693,1.004410,-0.055177,0.018067,-27.814146,-93.611046,-3.588922
1649271043.195192,1649271043.207397,101.000000,0.000000,4243.974121,4244.102539,4246.410156,4242.179688,4201.025879,4242.692383,4227.692383,4254.230957,4284.102539,4245.897461,4236.666504,4267.820313,4242.948730,4243.974121,3503.000000,1.000000,15.000000,,,,0.000000,4.000000,4.000000,4.000000,4.000000,4.000000,4.000000,4.000000,4.000000,4.000000,4.000000,4.000000,4.000000,4.000000,4.000000,100.000000,,,,,,,,,,,,,,,,,,,,,,,,,,,,
1649271043.202994,1649271043.215101,102.000000,0.000000,4250.512695,4246.794922,4254.871582,4244.615234,4200.128418,4248.077148,4234.871582,4264.230957,4291.666504,4254.871582,4245.897461,4277.179688,4244.102539,4249.743652,3599.000000,1.000000,15.000000,,,,0.000000,4.000000,4.000000,4.000000,4.000000,4.000000,4.000000,4.000000,4.000000,4.000000,4.000000,4.000000,4.000000,4.000000,4.000000,100.000000,,,,,,,,,,,,,,,,,,,,,,,,,,,,
1649271043.210797,1649271043.222905,103.000000,0.000000,4260.384766,4252.563965,4260.384766,4251.922852,4206.153809,4253.846191,4242.307617,4268.846191,4298.077148,4242.948730,4251.410156,4283.077148,4254.743652,4260.384766,3596.000000,1.000000,15.000000,,,,0.000000,4.000000,4.000000,4.000000,4.000000,4.000000,4.000000,4.000000,4.000000,4.000000,4.000000,4.000000,4.000000,4.000000,4.000000,100.000000,,,,,,,,,,,,,,,,,,,,,,,,,,,,
1649271043.218599,1649271043.230610,104.000000,0.000000,4252.692383,4244.102539,4249.230957,4241.794922,4202.051270,4247.307617,4237.692383,4259.743652,4286.410156,4213.717773,4236.153809,4276.153809,4243.717773,4252.563965,3542.000000,1.000000,15.000000,,,,0.000000,4.000000,4.000000,4.000000,4.000000,4.000000,4.000000,4.000000,4.000000,4.000000,4.000000,4.000000,4.000000,4.000000,4.000000,100.000000,,,,,,,,,,,,,,,,,26.000000,0.000000,0.632727,-0.377747,-0.586609,-0.335938,1.000504,-0.065919,0.030762,-28.561836,-94.358742,-4.336614
1649271043.226401,1649271043.238514,105.000000,0.000000,4247.563965,4237.563965,4246.025879,4233.333496,4197.563965,4246.538574,4239.871582,4263.333496,4276.153809,4229.487305,4235.641113,4274.230957,4230.897461,4246.153809,3503.000000,1.000000,15.000000,,,,0.000000,4.000000,4.000000,4.000000,4.000000,4.000000,4.000000,4.000000,4.000000,4.000000,4.000000,4.000000,4.000000,4.000000,4.000000,100.000000,,,,,,,,,,,,,,,,,,,,,,,,,,,,
