title:Eleccion2, start timestamp:1649271260.120676, stop timestamp:1649271281.361800, headset type:EPOCPLUS, headset serial:4A2C0467, headset firmware:633, channels:67, sampling rate:eeg_128;mot_32, samples:2722      , version:2.1, 
Timestamp,OriginalTimestamp,EEG.Counter,EEG.Interpolated,EEG.AF3,EEG.F7,EEG.F3,EEG.FC5,EEG.T7,EEG.P7,EEG.O1,EEG.O2,EEG.P8,EEG.T8,EEG.FC6,EEG.F4,EEG.F8,EEG.AF4,EEG.RawCq,EEG.Battery,EEG.BatteryPercent,MarkerIndex,MarkerType,MarkerValueInt,EEG.MarkerHardware,CQ.AF3,CQ.F7,CQ.F3,CQ.FC5,CQ.T7,CQ.P7,CQ.O1,CQ.O2,CQ.P8,CQ.T8,CQ.FC6,CQ.F4,CQ.F8,CQ.AF4,CQ.Overall,EQ.SampleRateQuality,EQ.OVERALL,EQ.AF3,EQ.F7,EQ.F3,EQ.FC5,EQ.T7,EQ.P7,EQ.O1,EQ.O2,EQ.P8,EQ.T8,EQ.FC6,EQ.F4,EQ.F8,EQ.AF4,MOT.CounterMems,MOT.InterpolatedMems,MOT.Q0,MOT.Q1,MOT.Q2,MOT.Q3,MOT.AccX,MOT.AccY,MOT.AccZ,MOT.MagX,MOT.MagY,MOT.MagZ
1649271260.120676,1649271260.123052,125.000000,0.000000,4230.256348,4228.846191,4221.282227,4224.871582,4215.769043,4233.717773,4231.666504,4251.282227,4250.512695,4267.820313,4146.794922,4217.436035,4217.948730,4213.974121,3504.000000,1.000000,15.000000,,,,0.000000,4.000000,4.000000,4.000000,4.000000,4.000000,4.000000,4.000000,4.000000,4.000000,4.000000,4.000000,4.000000,4.000000,4.000000,100.000000,,,,,,,,,,,,,,,,,,,,,,,,,,,,
1649271260.128482,1649271260.130756,126.000000,0.000000,4222.820313,4231.410156,4215.769043,4226.153809,4210.769043,4233.846191,4235.384766,4245.897461,4245.512695,4240.128418,4140.384766,4208.205078,4215.000000,4206.025879,3599.000000,1.000000,15.000000,,,,0.000000,4.000000,4.000000,4.000000,4.000000,4.000000,4.000000,4.000000,4.000000,4.000000,4.000000,4.000000,4.000000,4.000000,4.000000,100.000000,,,,,,,,,,,,,,,,,,,,,,,,,,,,
1649271260.136289,1649271260.138560,127.000000,0.000000,4218.077148,4218.974121,4212.820313,4216.922852,4210.897461,4239.358887,4240.000000,4251.922852,4258.205078,4243.461426,4143.205078,4201.666504,4213.333496,4203.974121,52.000000,1.000000,15.000000,,,,0.000000,4.000000,4.000000,4.000000,4.000000,4.000000,4.000000,4.000000,4.000000,4.000000,4.000000,4.000000,4.000000,4.000000,4.000000,100.000000,,,,,,,,,,,,,,,,,,,,,,,,,,,,
1649271260.144095,1649271260.146264,0.000000,0.000000,4231.282227,4218.974121,4223.589844,4220.769043,4220.256348,4246.025879,4247.051270,4271.025879,4279.358887,4270.000000,4157.436035,4213.589844,4224.871582,4218.461426,3527.000000,1.000000,15.000000,,,,0.000000,4.000000,4.000000,4.000000,4.000000,4.000000,4.000000,4.000000,4.000000,4.000000,4.000000,4.000000,4.000000,4.000000,4.000000,100.000000,,,,,,,,,,,,,,,,,0.000000,0.000000,0.353592,0.617126,-0.385559,0.587769,1.001480,-0.001465,-0.073243,-27.215992,-91.218430,-6.729228
1649271260.151901,1649271260.154068,1.000000,0.000000,4235.769043,4230.128418,4229.615234,4228.461426,4225.897461,4252.051270,4254.743652,4275.897461,4277.436035,4269.230957,4159.358887,4220.384766,4233.077148,4221.282227,3602.000000,1.000000,15.000000,,,,0.000000,4.000000,4.000000,4.000000,4.000000,4.000000,4.000000,4.000000,4.000000,4.000000,4.000000,4.000000,4.000000,4.000000,4.000000,100.000000,,,,,,,,,,,,,,,,,,,,,,,,,,,,
1649271260.159708,1649271260.161772,2.000000,0.000000,4227.948730,4232.307617,4221.666504,4228.205078,4218.205078,4251.666504,4250.000000,4260.128418,4264.615234,4262.692383,4152.436035,4210.897461,4226.922852,4213.974121,3538.000000,1.000000,15.000000,,,,0.000000,4.000000,4.000000,4.000000,4.000000,4.000000,4.000000,4.000000,4.000000,4.000000,4.000000,4.000000,4.000000,4.000000,4.000000,100.000000,,,,,,,,,,,,,,,,,,,,,,,,,,,,
1649271260.167514,1649271260.169576,3.000000,0.000000,4227.051270,4230.384766,4216.666504,4229.230957,4213.589844,4244.615234,4241.794922,4246.666504,4263.589844,4269.871582,4148.333496,4204.615234,4224.615234,4214.615234,3599.000000,1.000000,15.000000,,,,0.000000,4.000000,4.000000,4.000000,4.000000,4.000000,4.000000,4.000000,4.000000,4.000000,4.000000,4.000000,4.000000,4.000000,4.000000,100.000000,,,,,,,,,,,,,,,,,,,,,,,,,,,,
1649271260.175321,1649271260.177280,4.000000,0.000000,4229.102539,4230.384766,4218.589844,4229.358887,4224.102539,4251.538574,4244.358887,4245.000000,4264.358887,4265.128418,4143.077148,4207.051270,4230.000000,4214.615234,3634.000000,1.000000,15.000000,,,,0.000000,4.000000,4.000000,4.000000,4.000000,4.000000,4.000000,4.000000,4.000000,4.000000,4.000000,4.000000,4.000000,4.000000,4.000000,100.000000,,,,,,,,,,,,,,,,,1.000000,0.000000,0.353617,0.617065,-0.386841,0.586975,0.994156,0.015137,-0.067384,-26.019684,-91.966125,-7.028306
1649271260.183127,1649271260.185184,5.000000,0.000000,4228.974121,4230.256348,4222.948730,4227.436035,4230.384766,4265.256348,4249.230957,4249.102539,4261.538574,4256.410156,4145.384766,4210.897461,4230.769043,4212.948730,3594.000000,1.000000,15.000000,,,,0.000000,4.000000,4.000000,4.000000,4.000000,4.000000,4.000000,4.000000,4.000000,4.000000,4.000000,4.000000,4.000000,4.000000,4.000000,100.000000,,,,,,,,,,,,,,,,,,,,,,,,,,,,
1649271260.190933,1649271260.192988,6.000000,0.000000,4228.974121,4230.512695,4226.410156,4228.846191,4222.179688,4257.820313,4247.820313,4245.512695,4262.436035,4260.897461,4150.641113,4211.538574,4227.948730,4213.077148,3578.000000,1.000000,15.000000,,,,0.000000,4.000000,4.000000,4.000000,4.000000,4.000000,4.000000,4.000000,4.000000,4.000000,4.000000,4.000000,4.000000,4.000000,4.000000,100.000000,,,,,,,,,,,,,,,,,,,,,,,,,,,,
1649271260.198739,1649271260.200792,7.000000,0.000000,4230.897461,4231.794922,4226.666504,4231.153809,4213.974121,4241.794922,4243.205078,4234.615234,4262.692383,4265.000000,4145.000000,4212.948730,4228.589844,4214.487305,3613.000000,1.000000,15.000000,,,,0.000000,4.000000,4.000000,4.000000,4.000000,4.000000,4.000000,4.000000,4.000000,4.000000,4.000000,4.000000,4.000000,4.000000,4.000000,100.000000,,,,,,,,,,,,,,,,,,,,,,,,,,,,
1649271260.206546,1649271260.208596,8.000000,0.000000,4231.922852,4232.307617,4223.846191,4228.974121,4221.025879,4244.230957,4238.333496,4230.897461,4257.563965,4261.025879,4137.307617,4212.307617,4226.025879,4215.000000,2140.000000,1.000000,15.000000,,,,0.000000,4.000000,4.000000,4.000000,4.000000,4.000000,4.000000,4.000000,4.000000,4.000000,4.000000,4.000000,4.000000,4.000000,4.000000,100.000000,1.000000,100.000000,4.000000,4.000000,4.000000,4.000000,4.000000,4.000000,4.000000,4.000000,4.000000,4.000000,4.000000,4.000000,4.000000,4.000000,2.000000,0.000000,0.353536,0.616943,-0.387756,0.586548,0.998550,0.009277,-0.062501,-28.412298,-90.919357,-6.280613
1649271260.214352,1649271260.216400,9.000000,0.000000,4226.153809,4228.205078,4220.897461,4221.794922,4225.769043,4247.436035,4239.358887,4232.948730,4264.871582,4263.333496,4139.230957,4204.487305,4221.410156,4210.897461,3611.000000,1.000000,15.000000,,,,0.000000,4.000000,4.000000,4.000000,4.000000,4.000000,4.000000,4.000000,4.000000,4.000000,4.000000,4.000000,4.000000,4.000000,4.000000,100.000000,,,,,,,,,,,,,,,,,,,,,,,,,,,,
1649271260.222159,1649271260.224204,10.000000,0.000000,4217.051270,4222.051270,4216.666504,4216.025879,4216.922852,4243.077148,4242.820313,4232.051270,4275.384766,4261.282227,4135.769043,4199.358887,4210.256348,4202.436035,3602.000000,1.000000,15.000000,,,,0.000000,4.000000,4.000000,4.000000,4.000000,4.000000,4.000000,4.000000,4.000000,4.000000,4.000000,4.000000,4.000000,4.000000,4.000000,100.000000,,,,,,,,,,,,,,,,,,,,,,,,,,,,
1649271260.229965,1649271260.232108,11.000000,0.000000,4214.743652,4225.512695,4213.974121,4222.563965,4214.615234,4245.128418,4239.615234,4232.436035,4273.461426,4250.641113,4125.512695,4198.974121,4201.153809,4201.025879,3596.000000,1.000000,15.000000,,,,0.000000,4.000000,4.000000,4.000000,4.000000,4.000000,4.000000,4.000000,4.000000,4.000000,4.000000,4.000000,4.000000,4.000000,4.000000,100.000000,,,,,,,,,,,,,,,,,,,,,,,,,,,,
1649271260.237771,1649271260.240012,12.000000,0.000000,4222.948730,4232.051270,4218.589844,4232.179688,4216.922852,4240.384766,4232.436035,4232.948730,4270.000000,4250.128418,4127.563965,4197.948730,4207.436035,4209.871582,3556.000000,1.000000,15.000000,,,,0.000000,4.000000,4.000000,4.000000,4.000000,4.000000,4.000000,4.000000,4.000000,4.000000,4.000000,4.000000,4.000000,4.000000,4.000000,100.000000,,,,,,,,,,,,,,,,,3.000000,0.000000,0.352816,0.617126,-0.388489,0.586304,0.995132,0.012207,-0.076661,-26.767376,-91.667046,-7.775998
1649271260.245578,1649271260.247816,13.000000,0.000000,4232.179688,4237.436035,4227.820313,4233.846191,4213.333496,4234.358887,4233.077148,4234.743652,4268.077148,4261.153809,4140.512695,4204.871582,4217.692383,4218.333496,3506.000000,1.000000,15.000000,,,,0.000000,4.000000,4.000000,4.000000,4.000000,4.000000,4.000000,4.000000,4.000000,4.000000,4.000000,4.000000,4.000000,4.000000,4.000000,100.000000,,,,,,,,,,,,,,,,,,,,,,,,,,,,
1649271260.253384,1649271260.255621,14.000000,0.000000,4233.205078,4241.666504,4233.717773,4233.333496,4212.948730,4243.717773,4244.871582,4242.820313,4259.871582,4274.102539,4150.384766,4215.256348,4222.563965,4220.512695,3602.000000,1.000000,15.000000,,,,0.000000,4.000000,4.000000,4.000000,4.000000,4.000000,4.000000,4.000000,4.000000,4.000000,4.000000,4.000000,4.000000,4.000000,4.000000,100.000000,,,,,,,,,,,,,,,,,,,,,,,,,,,,
1649271260.261191,1649271260.263524,15.000000,0.000000,4232.692383,4242.948730,4232.948730,4237.692383,4222.436035,4251.410156,4247.820313,4244.230957,4255.384766,4276.666504,4151.153809,4215.256348,4228.846191,4220.256348,3596.000000,1.000000,15.000000,,,,0.000000,4.000000,4.000000,4.000000,4.000000,4.000000,4.000000,4.000000,4.000000,4.000000,4.000000,4.000000,4.000000,4.000000,4.000000,100.000000,,,,,,,,,,,,,,,,,,,,,,,,,,,,
1649271260.268997,1649271260.271428,16.000000,0.000000,4236.410156,4246.538574,4233.589844,4245.512695,4231.282227,4247.179688,4238.717773,4233.589844,4268.461426,4267.179688,4147.307617,4211.922852,4232.436035,4226.922852,0.000000,1.000000,15.000000,,,,0.000000,4.000000,4.000000,4.000000,4.000000,4.000000,4.000000,4.000000,4.000000,4.000000,4.000000,4.000000,4.000000,4.000000,4.000000,100.000000,,,,,,,,,,,,,,,,,4.000000,0.000000,0.352440,0.617188,-0.388733,0.586304,0.999527,-0.014160,-0.057130,-26.617838,-92.115662,-8.374151
1649271260.276803,1649271260.279233,17.000000,0.000000,4235.641113,4247.820313,4232.948730,4245.128418,4226.410156,4246.410156,4241.282227,4232.820313,4275.769043,4264.743652,4143.077148,4213.589844,4223.717773,4230.256348,0.000000,1.000000,15.000000,,,,0.000000,4.000000,4.000000,4.000000,4.000000,4.000000,4.000000,4.000000,4.000000,4.000000,4.000000,4.000000,4.000000,4.000000,4.000000,100.000000,,,,,,,,,,,,,,,,,,,,,,,,,,,,
1649271260.284609,1649271260.287037,18.000000,0.000000,4233.974121,4243.846191,4231.538574,4240.384766,4216.025879,4251.538574,4250.769043,4241.282227,4268.333496,4268.974121,4140.512695,4214.871582,4221.538574,4226.922852,0.000000,1.000000,15.000000,,,,0.000000,4.000000,4.000000,4.000000,4.000000,4.000000,4.000000,4.000000,4.000000,4.000000,4.000000,4.000000,4.000000,4.000000,4.000000,100.000000,,,,,,,,,,,,,,,,,,,,,,,,,,,,
1649271260.292416,1649271260.294741,19.000000,0.000000,4238.333496,4248.333496,4236.538574,4246.666504,4222.051270,4248.461426,4239.743652,4230.384766,4261.410156,4257.948730,4139.230957,4214.743652,4229.743652,4228.333496,0.000000,1.000000,15.000000,,,,0.000000,4.000000,4.000000,4.000000,4.000000,4.000000,4.000000,4.000000,4.000000,4.000000,4.000000,4.000000,4.000000,4.000000,4.000000,100.000000,,,,,,,,,,,,,,,,,,,,,,,,,,,,
1649271260.300222,1649271260.302645,20.000000,0.000000,4238.717773,4250.512695,4238.205078,4250.128418,4231.282227,4243.461426,4226.282227,4212.436035,4252.948730,4244.102539,4139.358887,4214.871582,4228.846191,4229.487305,0.000000,1.000000,15.000000,,,,0.000000,4.000000,4.000000,4.000000,4.000000,4.000000,4.000000,4.000000,4.000000,4.000000,4.000000,4.000000,4.000000,4.000000,4.000000,100.000000,,,,,,,,,,,,,,,,,5.000000,0.000000,0.351622,0.616882,-0.389221,0.586792,1.022965,-0.014649,-0.062501,-27.664606,-91.966125,-7.476921
1649271260.308029,1649271260.310449,21.000000,0.000000,4230.641113,4237.692383,4230.897461,4235.769043,4217.179688,4243.846191,4232.948730,4213.846191,4243.974121,4243.333496,4139.102539,4211.922852,4223.461426,4224.615234,0.000000,1.000000,15.000000,,,,0.000000,4.000000,4.000000,4.000000,4.000000,4.000000,4.000000,4.000000,4.000000,4.000000,4.000000,4.000000,4.000000,4.000000,4.000000,100.000000,,,,,,,,,,,,,,,,,,,,,,,,,,,,
1649271260.315835,1649271260.318253,22.000000,0.000000,4229.615234,4236.538574,4229.615234,4228.461426,4207.436035,4243.589844,4235.769043,4216.153809,4245.128418,4238.717773,4132.436035,4209.615234,4223.589844,4222.436035,0.000000,1.000000,15.000000,,,,0.000000,4.000000,4.000000,4.000000,4.000000,4.000000,4.000000,4.000000,4.000000,4.000000,4.000000,4.000000,4.000000,4.000000,4.000000,100.000000,,,,,,,,,,,,,,,,,,,,,,,,,,,,
1649271260.323641,1649271260.325957,23.000000,0.000000,4243.846191,4252.051270,4242.563965,4244.230957,4225.000000,4243.461426,4231.282227,4221.282227,4260.769043,4244.230957,4143.333496,4220.641113,4241.282227,4235.769043,0.000000,1.000000,15.000000,,,,0.000000,4.000000,4.000000,4.000000,4.000000,4.000000,4.000000,4.000000,4.000000,4.000000,4.000000,4.000000,4.000000,4.000000,4.000000,100.000000,,,,,,,,,,,,,,,,,,,,,,,,,,,,
1649271260.331448,1649271260.333861,24.000000,0.000000,4255.128418,4247.692383,4252.692383,4248.461426,4229.487305,4241.538574,4235.384766,4239.230957,4270.512695,4272.051270,4167.436035,4234.487305,4262.820313,4247.179688,0.000000,1.000000,15.000000,,,,0.000000,4.000000,4.000000,4.000000,4.000000,4.000000,4.000000,4.000000,4.000000,4.000000,4.000000,4.000000,4.000000,4.000000,4.000000,100.000000,,,,,,,,,,,,,,,,,6.000000,0.000000,0.351253,0.616455,-0.389587,0.587219,1.028336,-0.017578,-0.055665,-28.262760,-92.564278,-7.925536
1649271260.339254,1649271260.341665,25.000000,0.000000,4252.051270,4234.358887,4249.743652,4234.358887,4215.128418,4236.538574,4237.563965,4244.102539,4262.307617,4285.897461,4169.358887,4230.512695,4263.846191,4242.179688,0.000000,1.000000,15.000000,,,,0.000000,4.000000,4.000000,4.000000,4.000000,4.000000,4.000000,4.000000,4.000000,4.000000,4.000000,4.000000,4.000000,4.000000,4.000000,100.000000,,,,,,,,,,,,,,,,,,,,,,,,,,,,
1649271260.347061,1649271260.349469,26.000000,0.000000,4241.153809,4239.871582,4240.512695,4234.102539,4213.846191,4228.205078,4230.769043,4229.871582,4248.974121,4269.871582,4152.179688,4216.794922,4248.077148,4230.000000,0.000000,1.000000,15.000000,,,,0.000000,4.000000,4.000000,4.000000,4.000000,4.000000,4.000000,4.000000,4.000000,4.000000,4.000000,4.000000,4.000000,4.000000,4.000000,100.000000,,,,,,,,,,,,,,,,,,,,,,,,,,,,
1649271260.354867,1649271260.357173,27.000000,0.000000,4243.974121,4249.102539,4242.820313,4246.153809,4217.563965,4231.153809,4235.256348,4230.897461,4245.256348,4261.794922,4152.436035,4218.077148,4246.410156,4234.102539,0.000000,1.000000,15.000000,,,,0.000000,4.000000,4.000000,4.000000,4.000000,4.000000,4.000000,4.000000,4.000000,4.000000,4.000000,4.000000,4.000000,4.000000,4.000000,100.000000,,,,,,,,,,,,,,,,,,,,,,,,,,,,
1649271260.362673,1649271260.365078,28.000000,0.000000,4253.461426,4248.974121,4248.333496,4245.897461,4214.871582,4243.589844,4246.410156,4241.025879,4247.948730,4267.179688,4164.615234,4224.743652,4254.615234,4244.230957,0.000000,1.000000,15.000000,,,,0.000000,4.000000,4.000000,4.000000,4.000000,4.000000,4.000000,4.000000,4.000000,4.000000,4.000000,4.000000,4.000000,4.000000,4.000000,100.000000,,,,,,,,,,,,,,,,,7.000000,0.000000,0.351104,0.616211,-0.389832,0.587402,1.016129,-0.022950,-0.066407,-27.814146,-92.115662,-7.327382
1649271260.370479,1649271260.372882,29.000000,0.000000,4239.871582,4242.051270,4235.897461,4235.897461,4216.410156,4238.974121,4236.794922,4227.820313,4245.641113,4260.897461,4158.461426,4215.128418,4247.948730,4234.230957,0.000000,1.000000,15.000000,,,,0.000000,4.000000,4.000000,4.000000,4.000000,4.000000,4.000000,4.000000,4.000000,4.000000,4.000000,4.000000,4.000000,4.000000,4.000000,100.000000,,,,,,,,,,,,,,,,,,,,,,,,,,,,
1649271260.378286,1649271260.380686,30.000000,0.000000,4228.717773,4232.179688,4226.666504,4229.230957,4217.051270,4230.256348,4227.948730,4218.205078,4254.230957,4259.871582,4148.974121,4206.922852,4242.307617,4224.487305,0.000000,1.000000,15.000000,,,,0.000000,4.000000,4.000000,4.000000,4.000000,4.000000,4.000000,4.000000,4.000000,4.000000,4.000000,4.000000,4.000000,4.000000,4.000000,100.000000,,,,,,,,,,,,,,,,,,,,,,,,,,,,
1649271260.386092,1649271260.388390,31.000000,0.000000,4242.051270,4235.769043,4235.128418,4233.333496,4216.025879,4242.179688,4243.333496,4230.769043,4277.051270,4271.025879,4155.256348,4213.974121,4248.717773,4231.153809,0.000000,1.000000,15.000000,,,,0.000000,4.000000,4.000000,4.000000,4.000000,4.000000,4.000000,4.000000,4.000000,4.000000,4.000000,4.000000,4.000000,4.000000,4.000000,100.000000,,,,,,,,,,,,,,,,,,,,,,,,,,,,
1649271260.393899,1649271260.396294,32.000000,0.000000,4246.282227,4246.922852,4238.846191,4240.897461,4223.846191,4254.230957,4251.025879,4237.948730,4284.230957,4273.974121,4163.461426,4221.025879,4256.025879,4237.179688,0.000000,1.000000,15.000000,,,,0.000000,4.000000,4.000000,4.000000,4.000000,4.000000,4.000000,4.000000,4.000000,4.000000,4.000000,4.000000,4.000000,4.000000,4.000000,100.000000,,,,,,,,,,,,,,,,,8.000000,0.000000,0.351183,0.616089,-0.390137,0.587280,0.998550,0.002930,-0.062501,-27.963684,-91.218430,-7.028306
1649271260.401705,1649271260.404098,33.000000,0.000000,4231.794922,4240.512695,4230.897461,4236.666504,4224.102539,4246.922852,4236.666504,4229.615234,4269.871582,4257.436035,4158.717773,4215.000000,4247.563965,4230.256348,0.000000,1.000000,15.000000,,,,0.000000,4.000000,4.000000,4.000000,4.000000,4.000000,4.000000,4.000000,4.000000,4.000000,4.000000,4.000000,4.000000,4.000000,4.000000,100.000000,,,,,,,,,,,,,,,,,,,,,,,,,,,,
1649271260.409511,1649271260.411902,34.000000,0.000000,4230.000000,4230.512695,4229.615234,4230.641113,4213.589844,4240.000000,4230.256348,4231.794922,4263.461426,4247.692383,4152.820313,4206.153809,4236.410156,4222.692383,0.000000,1.000000,15.000000,,,,0.000000,4.000000,4.000000,4.000000,4.000000,4.000000,4.000000,4.000000,4.000000,4.000000,4.000000,4.000000,4.000000,4.000000,4.000000,100.000000,,,,,,,,,,,,,,,,,,,,,,,,,,,,
1649271260.417318,1649271260.419606,35.000000,0.000000,4234.871582,4234.871582,4231.410156,4233.077148,4212.563965,4246.538574,4238.974121,4244.615234,4264.871582,4257.692383,4154.487305,4207.563965,4242.051270,4224.615234,0.000000,1.000000,15.000000,,,,0.000000,4.000000,4.000000,4.000000,4.000000,4.000000,4.000000,4.000000,4.000000,4.000000,4.000000,4.000000,4.000000,4.000000,4.000000,100.000000,,,,,,,,,,,,,,,,,,,,,,,,,,,,
1649271260.425124,1649271260.427510,36.000000,0.000000,4233.589844,4235.128418,4231.538574,4233.205078,4219.871582,4248.717773,4244.615234,4246.538574,4261.410156,4262.436035,4156.282227,4213.333496,4246.410156,4228.333496,0.000000,1.000000,15.000000,,,,0.000000,4.000000,4.000000,4.000000,4.000000,4.000000,4.000000,4.000000,4.000000,4.000000,4.000000,4.000000,4.000000,4.000000,4.000000,100.000000,,,,,,,,,,,,,,,,,9.000000,0.000000,0.351785,0.616211,-0.390137,0.586792,1.008804,0.014649,-0.073732,-28.561836,-91.068893,-7.327382
1649271260.432931,1649271260.435314,37.000000,0.000000,4232.820313,4233.974121,4230.769043,4234.230957,4222.051270,4239.230957,4247.563965,4247.307617,4263.974121,4257.436035,4157.051270,4211.025879,4238.077148,4226.153809,0.000000,1.000000,15.000000,,,,0.000000,4.000000,4.000000,4.000000,4.000000,4.000000,4.000000,4.000000,4.000000,4.000000,4.000000,4.000000,4.000000,4.000000,4.000000,100.000000,,,,,,,,,,,,,,,,,,,,,,,,,,,,
1649271260.440737,1649271260.443118,38.000000,0.000000,4223.974121,4232.179688,4221.666504,4232.307617,4218.717773,4232.051270,4243.589844,4246.282227,4262.692383,4253.974121,4146.922852,4197.179688,4227.820313,4215.000000,0.000000,1.000000,15.000000,,,,0.000000,4.000000,4.000000,4.000000,4.000000,4.000000,4.000000,4.000000,4.000000,4.000000,4.000000,4.000000,4.000000,4.000000,4.000000,100.000000,,,,,,,,,,,,,,,,,,,,,,,,,,,,
1649271260.448543,1649271260.450822,39.000000,0.000000,4212.436035,4219.615234,4210.128418,4218.461426,4216.153809,4237.436035,4232.307617,4231.794922,4245.512695,4246.538574,4135.128418,4187.692383,4218.846191,4205.769043,0.000000,1.000000,15.000000,,,,0.000000,4.000000,4.000000,4.000000,4.000000,4.000000,4.000000,4.000000,4.000000,4.000000,4.000000,4.000000,4.000000,4.000000,4.000000,100.000000,,,,,,,,,,,,,,,,,,,,,,,,,,,,
1649271260.456349,1649271260.458726,40.000000,0.000000,4220.897461,4216.922852,4215.769043,4215.384766,4219.487305,4244.358887,4238.333496,4230.000000,4242.820313,4240.128418,4143.717773,4198.205078,4219.487305,4213.333496,0.000000,1.000000,15.000000,,,,0.000000,4.000000,4.000000,4.000000,4.000000,4.000000,4.000000,4.000000,4.000000,4.000000,4.000000,4.000000,4.000000,4.000000,4.000000,100.000000,,,,,,,,,,,,,,,,,10.000000,0.000000,0.352493,0.616638,-0.389648,0.586243,1.007828,0.000488,-0.061524,-26.767376,-92.265205,-6.729228
1649271260.464156,1649271260.466530,41.000000,0.000000,4226.282227,4216.025879,4222.692383,4218.077148,4220.769043,4249.358887,4246.538574,4239.487305,4249.871582,4245.897461,4151.282227,4203.974121,4222.307617,4216.794922,0.000000,1.000000,15.000000,,,,0.000000,4.000000,4.000000,4.000000,4.000000,4.000000,4.000000,4.000000,4.000000,4.000000,4.000000,4.000000,4.000000,4.000000,4.000000,100.000000,,,,,,,,,,,,,,,,,,,,,,,,,,,,
1649271260.471962,1649271260.474433,42.000000,0.000000,4208.717773,4200.256348,4209.358887,4202.820313,4202.948730,4248.205078,4227.436035,4222.051270,4228.974121,4249.871582,4134.615234,4187.051270,4204.358887,4198.846191,0.000000,1.000000,15.000000,,,,0.000000,4.000000,4.000000,4.000000,4.000000,4.000000,4.000000,4.000000,4.000000,4.000000,4.000000,4.000000,4.000000,4.000000,4.000000,100.000000,,,,,,,,,,,,,,,,,,,,,,,,,,,,
1649271260.479769,1649271260.482237,43.000000,0.000000,4212.051270,4211.538574,4210.897461,4209.743652,4194.871582,4233.846191,4220.641113,4216.153809,4214.487305,4247.692383,4137.179688,4190.384766,4203.077148,4203.461426,0.000000,1.000000,15.000000,,,,0.000000,4.000000,4.000000,4.000000,4.000000,4.000000,4.000000,4.000000,4.000000,4.000000,4.000000,4.000000,4.000000,4.000000,4.000000,100.000000,,,,,,,,,,,,,,,,,,,,,,,,,,,,
1649271260.487575,1649271260.489941,44.000000,0.000000,4237.563965,4238.333496,4233.589844,4237.307617,4219.358887,4228.717773,4236.282227,4239.358887,4235.256348,4250.256348,4162.820313,4217.692383,4233.461426,4231.153809,0.000000,1.000000,15.000000,,,,0.000000,4.000000,4.000000,4.000000,4.000000,4.000000,4.000000,4.000000,4.000000,4.000000,4.000000,4.000000,4.000000,4.000000,4.000000,100.000000,,,,,,,,,,,,,,,,,11.000000,0.000000,0.352654,0.616333,-0.389709,0.586426,1.001480,0.010742,-0.062989,-28.262760,-91.068893,-7.626459
1649271260.495381,1649271260.497745,45.000000,0.000000,4236.794922,4227.948730,4236.153809,4228.974121,4233.077148,4238.589844,4234.358887,4239.230957,4251.922852,4245.769043,4162.436035,4219.615234,4237.436035,4228.717773,0.000000,1.000000,15.000000,,,,0.000000,4.000000,4.000000,4.000000,4.000000,4.000000,4.000000,4.000000,4.000000,4.000000,4.000000,4.000000,4.000000,4.000000,4.000000,100.000000,,,,,,,,,,,,,,,,,,,,,,,,,,,,
1649271260.503188,1649271260.505449,46.000000,0.000000,4226.922852,4212.307617,4227.692383,4213.717773,4216.666504,4240.000000,4234.358887,4235.000000,4249.743652,4248.205078,4153.589844,4211.538574,4227.820313,4218.589844,0.000000,1.000000,15.000000,,,,0.000000,4.000000,4.000000,4.000000,4.000000,4.000000,4.000000,4.000000,4.000000,4.000000,4.000000,4.000000,4.000000,4.000000,4.000000,100.000000,,,,,,,,,,,,,,,,,,,,,,,,,,,,
1649271260.510994,1649271260.513253,47.000000,0.000000,4232.436035,4218.717773,4229.615234,4222.948730,4210.128418,4240.769043,4246.922852,4245.256348,4242.436035,4253.077148,4157.436035,4215.384766,4232.820313,4225.256348,0.000000,1.000000,15.000000,,,,0.000000,4.000000,4.000000,4.000000,4.000000,4.000000,4.000000,4.000000,4.000000,4.000000,4.000000,4.000000,4.000000,4.000000,4.000000,100.000000,,,,,,,,,,,,,,,,,,,,,,,,,,,,
1649271260.518801,1649271260.521057,48.000000,0.000000,4230.384766,4219.743652,4226.410156,4226.666504,4217.307617,4244.487305,4238.974121,4238.589844,4237.948730,4238.205078,4152.179688,4209.743652,4225.000000,4220.384766,0.000000,1.000000,15.000000,,,,0.000000,4.000000,4.000000,4.000000,4.000000,4.000000,4.000000,4.000000,4.000000,4.000000,4.000000,4.000000,4.000000,4.000000,4.000000,100.000000,,,,,,,,,,,,,,,,,12.000000,0.000000,0.352693,0.615479,-0.390198,0.586975,1.005386,-0.006348,-0.062989,-29.309528,-91.367973,-6.131075
1649271260.526607,1649271260.528862,49.000000,0.000000,4227.307617,4223.333496,4226.666504,4224.487305,4220.641113,4239.230957,4231.538574,4234.487305,4247.948730,4226.922852,4152.051270,4205.769043,4221.538574,4218.333496,0.000000,1.000000,15.000000,,,,0.000000,4.000000,4.000000,4.000000,4.000000,4.000000,4.000000,4.000000,4.000000,4.000000,4.000000,4.000000,4.000000,4.000000,4.000000,100.000000,,,,,,,,,,,,,,,,,,,,,,,,,,,,
1649271260.534413,1649271260.536666,50.000000,0.000000,4242.051270,4236.282227,4243.461426,4234.487305,4226.666504,4237.948730,4242.820313,4249.487305,4263.974121,4234.871582,4167.820313,4220.769043,4244.358887,4233.461426,0.000000,1.000000,15.000000,,,,0.000000,4.000000,4.000000,4.000000,4.000000,4.000000,4.000000,4.000000,4.000000,4.000000,4.000000,4.000000,4.000000,4.000000,4.000000,100.000000,,,,,,,,,,,,,,,,,,,,,,,,,,,,
1649271260.542220,1649271260.544570,51.000000,0.000000,4246.922852,4236.666504,4247.948730,4240.641113,4228.717773,4246.922852,4246.666504,4250.128418,4263.077148,4242.948730,4172.179688,4226.794922,4250.256348,4236.153809,0.000000,1.000000,15.000000,,,,0.000000,4.000000,4.000000,4.000000,4.000000,4.000000,4.000000,4.000000,4.000000,4.000000,4.000000,4.000000,4.000000,4.000000,4.000000,100.000000,,,,,,,,,,,,,,,,,,,,,,,,,,,,
1649271260.550026,1649271260.552374,52.000000,0.000000,4241.153809,4236.410156,4244.102539,4240.897461,4226.794922,4249.487305,4244.871582,4246.025879,4256.153809,4245.512695,4166.153809,4224.743652,4238.461426,4231.794922,0.000000,1.000000,15.000000,,,,0.000000,4.000000,4.000000,4.000000,4.000000,4.000000,4.000000,4.000000,4.000000,4.000000,4.000000,4.000000,4.000000,4.000000,4.000000,100.000000,,,,,,,,,,,,,,,,,13.000000,0.000000,0.352447,0.615173,-0.390442,0.587280,1.011246,-0.014160,-0.066896,-27.365530,-92.115662,-7.327382
1649271260.557832,1649271260.560178,53.000000,0.000000,4232.563965,4233.717773,4236.794922,4233.846191,4225.000000,4246.025879,4241.666504,4244.230957,4253.333496,4240.000000,4158.077148,4217.436035,4228.589844,4226.282227,0.000000,1.000000,15.000000,,,,0.000000,4.000000,4.000000,4.000000,4.000000,4.000000,4.000000,4.000000,4.000000,4.000000,4.000000,4.000000,4.000000,4.000000,4.000000,100.000000,,,,,,,,,,,,,,,,,,,,,,,,,,,,
1649271260.565639,1649271260.567882,54.000000,0.000000,4219.487305,4218.846191,4220.897461,4216.794922,4214.230957,4244.102539,4230.256348,4228.717773,4248.589844,4226.794922,4149.615234,4202.692383,4218.717773,4212.436035,0.000000,1.000000,15.000000,,,,0.000000,4.000000,4.000000,4.000000,4.000000,4.000000,4.000000,4.000000,4.000000,4.000000,4.000000,4.000000,4.000000,4.000000,4.000000,100.000000,,,,,,,,,,,,,,,,,,,,,,,,,,,,
1649271260.573445,1649271260.575686,55.000000,0.000000,4224.230957,4222.307617,4225.897461,4221.538574,4212.051270,4241.410156,4227.051270,4225.512695,4249.358887,4226.153809,4157.436035,4207.307617,4223.077148,4215.897461,0.000000,1.000000,15.000000,,,,0.000000,4.000000,4.000000,4.000000,4.000000,4.000000,4.000000,4.000000,4.000000,4.000000,4.000000,4.000000,4.000000,4.000000,4.000000,100.000000,,,,,,,,,,,,,,,,,,,,,,,,,,,,
1649271260.581252,1649271260.583390,56.000000,0.000000,4236.282227,4236.025879,4242.820313,4237.436035,4227.179688,4243.974121,4238.846191,4234.102539,4250.128418,4234.487305,4168.846191,4221.025879,4234.743652,4231.025879,0.000000,1.000000,15.000000,,,,0.000000,4.000000,4.000000,4.000000,4.000000,4.000000,4.000000,4.000000,4.000000,4.000000,4.000000,4.000000,4.000000,4.000000,4.000000,100.000000,,,,,,,,,,,,,,,,,14.000000,0.000000,0.351937,0.614319,-0.391052,0.588074,0.992203,-0.010742,-0.059571,-28.412298,-91.218430,-7.476921
1649271260.589058,1649271260.591194,57.000000,0.000000,4234.743652,4233.077148,4239.358887,4233.461426,4232.179688,4247.563965,4242.436035,4232.820313,4247.051270,4230.769043,4167.948730,4218.333496,4233.717773,4231.922852,0.000000,1.000000,15.000000,,,,0.000000,4.000000,4.000000,4.000000,4.000000,4.000000,4.000000,4.000000,4.000000,4.000000,4.000000,4.000000,4.000000,4.000000,4.000000,100.000000,,,,,,,,,,,,,,,,,,,,,,,,,,,,
1649271260.596864,1649271260.598898,58.000000,0.000000,4234.487305,4231.025879,4233.846191,4231.025879,4225.512695,4247.051270,4237.820313,4233.205078,4254.615234,4228.717773,4169.743652,4217.436035,4235.512695,4228.077148,0.000000,1.000000,15.000000,,,,0.000000,4.000000,4.000000,4.000000,4.000000,4.000000,4.000000,4.000000,4.000000,4.000000,4.000000,4.000000,4.000000,4.000000,4.000000,100.000000,,,,,,,,,,,,,,,,,,,,,,,,,,,,
1649271260.604671,1649271260.606702,59.000000,0.000000,4228.717773,4227.948730,4230.384766,4229.487305,4216.922852,4245.641113,4233.846191,4226.794922,4266.025879,4227.563965,4164.230957,4214.358887,4232.948730,4220.128418,0.000000,1.000000,15.000000,,,,0.000000,4.000000,4.000000,4.000000,4.000000,4.000000,4.000000,4.000000,4.000000,4.000000,4.000000,4.000000,4.000000,4.000000,4.000000,100.000000,,,,,,,,,,,,,,,,,,,,,,,,,,,,
1649271260.612477,1649271260.614506,60.000000,0.000000,4221.410156,4221.666504,4223.974121,4223.205078,4211.666504,4245.769043,4232.692383,4217.436035,4263.333496,4222.436035,4157.948730,4206.410156,4225.128418,4212.948730,0.000000,1.000000,15.000000,,,,0.000000,4.000000,4.000000,4.000000,4.000000,4.000000,4.000000,4.000000,4.000000,4.000000,4.000000,4.000000,4.000000,4.000000,4.000000,100.000000,,,,,,,,,,,,,,,,,15.000000,0.000000,0.351665,0.613403,-0.391724,0.588745,1.024430,-0.015137,-0.047364,-28.262760,-92.564278,-7.327382
1649271260.620283,1649271260.622310,61.000000,0.000000,4237.692383,4234.487305,4236.666504,4233.461426,4225.512695,4247.051270,4237.820313,4230.769043,4261.282227,4231.410156,4175.641113,4219.487305,4241.666504,4228.333496,0.000000,1.000000,15.000000,,,,0.000000,4.000000,4.000000,4.000000,4.000000,4.000000,4.000000,4.000000,4.000000,4.000000,4.000000,4.000000,4.000000,4.000000,4.000000,100.000000,,,,,,,,,,,,,,,,,,,,,,,,,,,,
1649271260.628090,1649271260.630114,62.000000,0.000000,4255.128418,4251.025879,4252.563965,4250.897461,4239.102539,4246.282227,4243.205078,4248.974121,4274.615234,4244.743652,4192.692383,4237.436035,4262.948730,4246.410156,0.000000,1.000000,15.000000,,,,0.000000,4.000000,4.000000,4.000000,4.000000,4.000000,4.000000,4.000000,4.000000,4.000000,4.000000,4.000000,4.000000,4.000000,4.000000,100.000000,,,,,,,,,,,,,,,,,,,,,,,,,,,,
1649271260.635896,1649271260.637919,63.000000,0.000000,4251.025879,4249.358887,4249.487305,4250.384766,4236.153809,4248.333496,4248.589844,4251.538574,4286.538574,4248.077148,4193.333496,4234.487305,4265.128418,4247.948730,0.000000,1.000000,15.000000,,,,0.000000,4.000000,4.000000,4.000000,4.000000,4.000000,4.000000,4.000000,4.000000,4.000000,4.000000,4.000000,4.000000,4.000000,4.000000,100.000000,,,,,,,,,,,,,,,,,,,,,,,,,,,,
1649271260.643702,1649271260.645723,64.000000,0.000000,4250.000000,4243.974121,4249.230957,4242.820313,4241.410156,4249.615234,4247.820313,4248.333496,4272.051270,4249.743652,4194.871582,4232.563965,4263.461426,4246.666504,3518.000000,1.000000,15.000000,,,,0.000000,4.000000,4.000000,4.000000,4.000000,4.000000,4.000000,4.000000,4.000000,4.000000,4.000000,4.000000,4.000000,4.000000,4.000000,100.000000,,,,,,,,,,,,,,,,,16.000000,0.000000,0.351729,0.612976,-0.392151,0.588867,1.020035,-0.007813,-0.052735,-28.262760,-91.816589,-6.579690
1649271260.651509,1649271260.653527,65.000000,0.000000,4247.307617,4243.846191,4248.974121,4241.538574,4251.666504,4243.333496,4237.179688,4237.436035,4247.307617,4244.871582,4191.794922,4230.897461,4252.692383,4241.282227,3596.000000,1.000000,15.000000,,,,0.000000,4.000000,4.000000,4.000000,4.000000,4.000000,4.000000,4.000000,4.000000,4.000000,4.000000,4.000000,4.000000,4.000000,4.000000,100.000000,,,,,,,,,,,,,,,,,,,,,,,,,,,,
1649271260.659315,1649271260.661431,66.000000,0.000000,4236.153809,4238.846191,4239.358887,4239.102539,4241.538574,4242.692383,4233.846191,4223.846191,4247.563965,4238.717773,4182.692383,4220.384766,4238.333496,4229.615234,3527.000000,1.000000,15.000000,,,,0.000000,4.000000,4.000000,4.000000,4.000000,4.000000,4.000000,4.000000,4.000000,4.000000,4.000000,4.000000,4.000000,4.000000,4.000000,100.000000,,,,,,,,,,,,,,,,,,,,,,,,,,,,
1649271260.667122,1649271260.669235,67.000000,0.000000,4241.538574,4236.666504,4242.436035,4238.077148,4229.487305,4247.307617,4244.743652,4229.871582,4261.153809,4247.307617,4186.666504,4222.051270,4244.487305,4231.538574,3588.000000,1.000000,15.000000,,,,0.000000,4.000000,4.000000,4.000000,4.000000,4.000000,4.000000,4.000000,4.000000,4.000000,4.000000,4.000000,4.000000,4.000000,4.000000,100.000000,,,,,,,,,,,,,,,,,,,,,,,,,,,,
1649271260.674928,1649271260.677139,68.000000,0.000000,4250.769043,4241.025879,4249.230957,4240.384766,4240.641113,4246.666504,4247.948730,4240.256348,4261.410156,4247.436035,4193.589844,4230.000000,4250.384766,4241.282227,3632.000000,1.000000,15.000000,,,,0.000000,4.000000,4.000000,4.000000,4.000000,4.000000,4.000000,4.000000,4.000000,4.000000,4.000000,4.000000,4.000000,4.000000,4.000000,100.000000,,,,,,,,,,,,,,,,,17.000000,0.000000,0.351746,0.612732,-0.392700,0.588745,1.024918,-0.001465,-0.056153,-27.963684,-92.713814,-6.729228
1649271260.682734,1649271260.684943,69.000000,0.000000,4249.102539,4249.230957,4248.461426,4247.051270,4259.487305,4253.205078,4246.922852,4243.077148,4260.128418,4244.615234,4200.769043,4231.538574,4249.615234,4246.922852,3598.000000,1.000000,15.000000,,,,0.000000,4.000000,4.000000,4.000000,4.000000,4.000000,4.000000,4.000000,4.000000,4.000000,4.000000,4.000000,4.000000,4.000000,4.000000,100.000000,,,,,,,,,,,,,,,,,,,,,,,,,,,,
1649271260.690541,1649271260.692747,70.000000,0.000000,4253.205078,4251.794922,4253.461426,4254.230957,4265.512695,4264.230957,4258.717773,4252.179688,4264.102539,4264.871582,4211.410156,4236.282227,4261.410156,4248.461426,3574.000000,1.000000,15.000000,,,,0.000000,4.000000,4.000000,4.000000,4.000000,4.000000,4.000000,4.000000,4.000000,4.000000,4.000000,4.000000,4.000000,4.000000,4.000000,100.000000,,,,,,,,,,,,,,,,,,,,,,,,,,,,
1649271260.698347,1649271260.700451,71.000000,0.000000,4246.922852,4235.256348,4244.230957,4240.000000,4256.153809,4254.358887,4256.282227,4249.230957,4265.769043,4265.256348,4197.179688,4228.846191,4256.410156,4236.666504,3599.000000,1.000000,15.000000,,,,0.000000,4.000000,4.000000,4.000000,4.000000,4.000000,4.000000,4.000000,4.000000,4.000000,4.000000,4.000000,4.000000,4.000000,4.000000,100.000000,,,,,,,,,,,,,,,,,,,,,,,,,,,,
1649271260.706153,1649271260.708355,72.000000,0.000000,4233.974121,4229.230957,4231.282227,4228.589844,4249.358887,4242.436035,4244.358887,4239.871582,4274.871582,4241.922852,4182.179688,4216.666504,4241.282227,4226.025879,2136.000000,1.000000,15.000000,,,,0.000000,4.000000,4.000000,4.000000,4.000000,4.000000,4.000000,4.000000,4.000000,4.000000,4.000000,4.000000,4.000000,4.000000,4.000000,100.000000,1.000000,100.000000,4.000000,4.000000,4.000000,4.000000,4.000000,4.000000,4.000000,4.000000,4.000000,4.000000,4.000000,4.000000,4.000000,4.000000,18.000000,0.000000,0.351444,0.613159,-0.392944,0.588318,1.028824,0.001465,-0.047364,-29.010452,-91.816589,-5.383383
1649271260.713960,1649271260.716160,73.000000,0.000000,4239.615234,4243.717773,4241.153809,4241.922852,4252.307617,4252.307617,4252.179688,4247.179688,4283.589844,4248.077148,4196.282227,4225.512695,4251.794922,4236.025879,3607.000000,1.000000,15.000000,,,,0.000000,4.000000,4.000000,4.000000,4.000000,4.000000,4.000000,4.000000,4.000000,4.000000,4.000000,4.000000,4.000000,4.000000,4.000000,100.000000,,,,,,,,,,,,,,,,,,,,,,,,,,,,
1649271260.721766,1649271260.723964,74.000000,0.000000,4240.256348,4240.384766,4240.897461,4240.512695,4248.333496,4250.000000,4248.974121,4240.897461,4271.538574,4255.769043,4195.384766,4224.487305,4247.179688,4233.717773,3594.000000,1.000000,15.000000,,,,0.000000,4.000000,4.000000,4.000000,4.000000,4.000000,4.000000,4.000000,4.000000,4.000000,4.000000,4.000000,4.000000,4.000000,4.000000,100.000000,,,,,,,,,,,,,,,,,,,,,,,,,,,,
1649271260.729572,1649271260.731668,75.000000,0.000000,4224.230957,4224.743652,4221.538574,4223.333496,4243.461426,4232.948730,4226.538574,4216.538574,4256.538574,4232.051270,4169.358887,4201.922852,4218.205078,4214.102539,3589.000000,1.000000,15.000000,,,,0.000000,4.000000,4.000000,4.000000,4.000000,4.000000,4.000000,4.000000,4.000000,4.000000,4.000000,4.000000,4.000000,4.000000,4.000000,100.000000,,,,,,,,,,,,,,,,,,,,,,,,,,,,
1649271260.737379,1649271260.739572,76.000000,0.000000,4226.794922,4227.692383,4223.589844,4224.487305,4251.025879,4237.051270,4229.487305,4220.000000,4259.487305,4222.563965,4169.358887,4202.692383,4219.230957,4217.436035,3547.000000,1.000000,15.000000,,,,0.000000,4.000000,4.000000,4.000000,4.000000,4.000000,4.000000,4.000000,4.000000,4.000000,4.000000,4.000000,4.000000,4.000000,4.000000,100.000000,,,,,,,,,,,,,,,,,19.000000,0.000000,0.351341,0.613647,-0.392822,0.587952,1.006851,-0.022461,-0.075685,-28.412298,-91.966125,-6.280613
1649271260.745185,1649271260.747376,77.000000,0.000000,4241.666504,4231.025879,4237.948730,4229.615234,4249.615234,4249.487305,4247.563965,4238.333496,4267.436035,4242.948730,4188.333496,4221.282227,4237.307617,4235.384766,3498.000000,1.000000,15.000000,,,,0.000000,4.000000,4.000000,4.000000,4.000000,4.000000,4.000000,4.000000,4.000000,4.000000,4.000000,4.000000,4.000000,4.000000,4.000000,100.000000,,,,,,,,,,,,,,,,,,,,,,,,,,,,
1649271260.752992,1649271260.755180,78.000000,0.000000,4237.563965,4226.666504,4235.000000,4225.512695,4242.051270,4247.179688,4248.077148,4234.102539,4268.333496,4256.282227,4188.077148,4221.282227,4232.179688,4233.846191,3594.000000,1.000000,15.000000,,,,0.000000,4.000000,4.000000,4.000000,4.000000,4.000000,4.000000,4.000000,4.000000,4.000000,4.000000,4.000000,4.000000,4.000000,4.000000,100.000000,,,,,,,,,,,,,,,,,,,,,,,,,,,,
1649271260.760798,1649271260.762884,79.000000,0.000000,4231.666504,4242.179688,4232.051270,4240.384766,4255.897461,4243.077148,4239.871582,4229.743652,4264.487305,4248.846191,4179.871582,4215.384766,4228.461426,4227.692383,3589.000000,1.000000,15.000000,,,,0.000000,4.000000,4.000000,4.000000,4.000000,4.000000,4.000000,4.000000,4.000000,4.000000,4.000000,4.000000,4.000000,4.000000,4.000000,100.000000,,,,,,,,,,,,,,,,,,,,,,,,,,,,
1649271260.768604,1649271260.770788,80.000000,0.000000,4237.436035,4251.538574,4234.871582,4249.871582,4269.615234,4248.333496,4237.436035,4231.153809,4260.256348,4235.256348,4177.436035,4216.410156,4234.102539,4231.410156,3547.000000,1.000000,15.000000,,,,0.000000,4.000000,4.000000,4.000000,4.000000,4.000000,4.000000,4.000000,4.000000,4.000000,4.000000,4.000000,4.000000,4.000000,4.000000,100.000000,,,,,,,,,,,,,,,,,20.000000,0.000000,0.351590,0.613953,-0.392761,0.587524,0.993179,-0.007813,-0.067872,-28.412298,-90.919357,-7.028306
1649271260.776411,1649271260.778592,81.000000,0.000000,4236.410156,4236.025879,4232.051270,4233.846191,4263.205078,4251.666504,4238.077148,4221.410156,4258.205078,4228.333496,4170.769043,4212.179688,4222.692383,4231.025879,3498.000000,1.000000,15.000000,,,,0.000000,4.000000,4.000000,4.000000,4.000000,4.000000,4.000000,4.000000,4.000000,4.000000,4.000000,4.000000,4.000000,4.000000,4.000000,100.000000,,,,,,,,,,,,,,,,,,,,,,,,,,,,
1649271260.784217,1649271260.786396,82.000000,0.000000,4231.922852,4236.410156,4231.794922,4235.384766,4263.717773,4249.102539,4242.820313,4220.512695,4264.615234,4227.563965,4167.307617,4209.743652,4213.205078,4226.666504,3594.000000,1.000000,15.000000,,,,0.000000,4.000000,4.000000,4.000000,4.000000,4.000000,4.000000,4.000000,4.000000,4.000000,4.000000,4.000000,4.000000,4.000000,4.000000,100.000000,,,,,,,,,,,,,,,,,,,,,,,,,,,,
1649271260.792023,1649271260.794100,83.000000,0.000000,4234.871582,4254.487305,4234.871582,4255.256348,4271.410156,4248.333496,4250.000000,4235.128418,4271.410156,4230.641113,4175.897461,4215.641113,4227.692383,4229.615234,3589.000000,1.000000,15.000000,,,,0.000000,4.000000,4.000000,4.000000,4.000000,4.000000,4.000000,4.000000,4.000000,4.000000,4.000000,4.000000,4.000000,4.000000,4.000000,100.000000,,,,,,,,,,,,,,,,,,,,,,,,,,,,
1649271260.799830,1649271260.802004,84.000000,0.000000,4236.666504,4250.000000,4233.974121,4250.128418,4265.384766,4244.743652,4245.128418,4238.461426,4270.384766,4241.025879,4182.307617,4217.692383,4234.358887,4231.794922,3547.000000,1.000000,15.000000,,,,0.000000,4.000000,4.000000,4.000000,4.000000,4.000000,4.000000,4.000000,4.000000,4.000000,4.000000,4.000000,4.000000,4.000000,4.000000,100.000000,,,,,,,,,,,,,,,,,21.000000,0.000000,0.351508,0.614136,-0.393005,0.587219,1.007340,-0.006348,-0.062989,-27.215992,-92.265205,-7.476921
1649271260.807636,1649271260.809808,85.000000,0.000000,4232.692383,4234.743652,4231.666504,4232.820313,4258.974121,4239.230957,4235.384766,4230.769043,4268.205078,4241.538574,4176.410156,4214.230957,4221.922852,4226.666504,3498.000000,1.000000,15.000000,,,,0.000000,4.000000,4.000000,4.000000,4.000000,4.000000,4.000000,4.000000,4.000000,4.000000,4.000000,4.000000,4.000000,4.000000,4.000000,100.000000,,,,,,,,,,,,,,,,,,,,,,,,,,,,
1649271260.815442,1649271260.817612,86.000000,0.000000,4231.153809,4240.128418,4230.256348,4237.436035,4264.487305,4233.846191,4232.307617,4226.666504,4256.153809,4215.641113,4168.846191,4211.025879,4210.769043,4223.461426,3594.000000,1.000000,15.000000,,,,0.000000,4.000000,4.000000,4.000000,4.000000,4.000000,4.000000,4.000000,4.000000,4.000000,4.000000,4.000000,4.000000,4.000000,4.000000,100.000000,,,,,,,,,,,,,,,,,,,,,,,,,,,,
1649271260.823249,1649271260.825316,87.000000,0.000000,4231.922852,4245.897461,4231.666504,4245.897461,4265.512695,4230.769043,4235.256348,4226.666504,4244.871582,4209.743652,4174.743652,4213.846191,4213.717773,4226.153809,3589.000000,1.000000,15.000000,,,,0.000000,4.000000,4.000000,4.000000,4.000000,4.000000,4.000000,4.000000,4.000000,4.000000,4.000000,4.000000,4.000000,4.000000,4.000000,100.000000,,,,,,,,,,,,,,,,,,,,,,,,,,,,
1649271260.831055,1649271260.833219,88.000000,0.000000,4239.102539,4241.410156,4241.153809,4244.102539,4264.358887,4240.384766,4240.128418,4228.717773,4260.384766,4238.205078,4186.410156,4225.256348,4225.641113,4234.743652,3547.000000,1.000000,15.000000,,,,0.000000,4.000000,4.000000,4.000000,4.000000,4.000000,4.000000,4.000000,4.000000,4.000000,4.000000,4.000000,4.000000,4.000000,4.000000,100.000000,,,,,,,,,,,,,,,,,22.000000,0.000000,0.351250,0.614380,-0.393127,0.587036,0.998062,0.000488,-0.068849,-28.412298,-92.265205,-8.523689
1649271260.838862,1649271260.841023,89.000000,0.000000,4249.102539,4243.846191,4248.589844,4245.384766,4275.512695,4252.307617,4243.205078,4229.615234,4282.179688,4245.512695,4188.077148,4233.589844,4232.179688,4241.025879,3498.000000,1.000000,15.000000,,,,0.000000,4.000000,4.000000,4.000000,4.000000,4.000000,4.000000,4.000000,4.000000,4.000000,4.000000,4.000000,4.000000,4.000000,4.000000,100.000000,,,,,,,,,,,,,,,,,,,,,,,,,,,,
1649271260.846668,1649271260.848927,90.000000,0.000000,4248.333496,4248.589844,4244.615234,4248.589844,4278.461426,4243.846191,4245.128418,4233.589844,4285.897461,4232.820313,4182.948730,4230.256348,4226.153809,4236.922852,3594.000000,1.000000,15.000000,,,,0.000000,4.000000,4.000000,4.000000,4.000000,4.000000,4.000000,4.000000,4.000000,4.000000,4.000000,4.000000,4.000000,4.000000,4.000000,100.000000,,,,,,,,,,,,,,,,,,,,,,,,,,,,
1649271260.854474,1649271260.856731,91.000000,0.000000,4244.487305,4243.974121,4244.743652,4245.000000,4266.794922,4235.641113,4246.410156,4247.179688,4286.666504,4241.666504,4184.487305,4228.205078,4225.384766,4237.820313,3589.000000,1.000000,15.000000,,,,0.000000,4.000000,4.000000,4.000000,4.000000,4.000000,4.000000,4.000000,4.000000,4.000000,4.000000,4.000000,4.000000,4.000000,4.000000,100.000000,,,,,,,,,,,,,,,,,,,,,,,,,,,,
1649271260.862281,1649271260.864635,92.000000,0.000000,4252.051270,4244.615234,4254.615234,4245.000000,4270.128418,4246.153809,4250.256348,4253.717773,4286.922852,4255.897461,4194.102539,4236.794922,4235.384766,4250.897461,3547.000000,1.000000,15.000000,,,,0.000000,4.000000,4.000000,4.000000,4.000000,4.000000,4.000000,4.000000,4.000000,4.000000,4.000000,4.000000,4.000000,4.000000,4.000000,100.000000,,,,,,,,,,,,,,,,,23.000000,0.000000,0.351129,0.614624,-0.393127,0.586853,0.990738,-0.008301,-0.073732,-27.814146,-90.620277,-7.626459
1649271260.870087,1649271260.872439,93.000000,0.000000,4253.333496,4247.051270,4252.436035,4247.820313,4276.282227,4252.563965,4248.717773,4240.769043,4273.589844,4248.846191,4190.384766,4236.794922,4227.179688,4251.538574,3498.000000,1.000000,15.000000,,,,0.000000,4.000000,4.000000,4.000000,4.000000,4.000000,4.000000,4.000000,4.000000,4.000000,4.000000,4.000000,4.000000,4.000000,4.000000,100.000000,,,,,,,,,,,,,,,,,,,,,,,,,,,,
1649271260.877893,1649271260.880343,94.000000,0.000000,4247.179688,4242.820313,4248.077148,4245.384766,4264.615234,4246.153809,4240.769043,4232.307617,4264.358887,4246.025879,4182.692383,4229.743652,4212.436035,4242.436035,3594.000000,1.000000,15.000000,,,,0.000000,4.000000,4.000000,4.000000,4.000000,4.000000,4.000000,4.000000,4.000000,4.000000,4.000000,4.000000,4.000000,4.000000,4.000000,100.000000,,,,,,,,,,,,,,,,,,,,,,,,,,,,
1649271260.885700,1649271260.888146,95.000000,0.000000,4257.307617,4248.205078,4259.230957,4247.820313,4267.051270,4245.000000,4240.512695,4243.846191,4264.102539,4260.897461,4194.871582,4240.128418,4225.897461,4251.282227,3589.000000,1.000000,15.000000,,,,0.000000,4.000000,4.000000,4.000000,4.000000,4.000000,4.000000,4.000000,4.000000,4.000000,4.000000,4.000000,4.000000,4.000000,4.000000,100.000000,,,,,,,,,,,,,,,,,,,,,,,,,,,,
1649271260.893506,1649271260.895850,96.000000,0.000000,4267.307617,4258.205078,4265.000000,4254.487305,4286.410156,4249.102539,4247.948730,4254.743652,4266.025879,4270.128418,4206.666504,4253.077148,4240.000000,4260.897461,3547.000000,1.000000,15.000000,,,,0.000000,4.000000,4.000000,4.000000,4.000000,4.000000,4.000000,4.000000,4.000000,4.000000,4.000000,4.000000,4.000000,4.000000,4.000000,100.000000,,,,,,,,,,,,,,,,,24.000000,0.000000,0.351509,0.614563,-0.392883,0.586853,1.005875,0.000000,-0.068849,-28.262760,-93.611046,-9.869535
1649271260.901312,1649271260.903654,97.000000,0.000000,4250.897461,4245.897461,4251.153809,4245.897461,4284.743652,4249.871582,4245.897461,4248.589844,4264.487305,4260.128418,4191.666504,4238.717773,4224.487305,4247.051270,3498.000000,1.000000,15.000000,,,,0.000000,4.000000,4.000000,4.000000,4.000000,4.000000,4.000000,4.000000,4.000000,4.000000,4.000000,4.000000,4.000000,4.000000,4.000000,100.000000,,,,,,,,,,,,,,,,,,,,,,,,,,,,
1649271260.909119,1649271260.911358,98.000000,0.000000,4230.769043,4227.051270,4233.077148,4228.589844,4272.563965,4244.743652,4231.794922,4225.384766,4250.128418,4244.871582,4171.538574,4214.487305,4204.102539,4228.846191,3594.000000,1.000000,15.000000,,,,0.000000,4.000000,4.000000,4.000000,4.000000,4.000000,4.000000,4.000000,4.000000,4.000000,4.000000,4.000000,4.000000,4.000000,4.000000,100.000000,,,,,,,,,,,,,,,,,,,,,,,,,,,,
1649271260.916925,1649271260.919162,99.000000,0.000000,4236.794922,4235.384766,4234.743652,4235.128418,4278.333496,4238.589844,4225.256348,4213.846191,4238.717773,4242.820313,4177.307617,4217.436035,4208.717773,4229.871582,3589.000000,1.000000,15.000000,,,,0.000000,4.000000,4.000000,4.000000,4.000000,4.000000,4.000000,4.000000,4.000000,4.000000,4.000000,4.000000,4.000000,4.000000,4.000000,100.000000,,,,,,,,,,,,,,,,,,,,,,,,,,,,
1649271260.924732,1649271260.926866,100.000000,0.000000,4248.846191,4246.410156,4246.153809,4246.410156,4279.743652,4244.230957,4231.794922,4234.871582,4248.205078,4248.461426,4188.205078,4233.205078,4222.948730,4241.538574,3547.000000,1.000000,15.000000,,,,0.000000,4.000000,4.000000,4.000000,4.000000,4.000000,4.000000,4.000000,4.000000,4.000000,4.000000,4.000000,4.000000,4.000000,4.000000,100.000000,,,,,,,,,,,,,,,,,25.000000,0.000000,0.351485,0.614441,-0.392822,0.587036,1.023453,-0.005859,-0.067384,-27.365530,-91.367973,-7.327382
1649271260.932538,1649271260.934670,101.000000,0.000000,4246.922852,4239.487305,4246.282227,4238.461426,4270.641113,4248.974121,4241.922852,4252.563965,4262.692383,4255.769043,4189.230957,4233.589844,4228.333496,4243.974121,3498.000000,1.000000,15.000000,,,,0.000000,4.000000,4.000000,4.000000,4.000000,4.000000,4.000000,4.000000,4.000000,4.000000,4.000000,4.000000,4.000000,4.000000,4.000000,100.000000,,,,,,,,,,,,,,,,,,,,,,,,,,,,
1649271260.940344,1649271260.942574,102.000000,0.000000,4246.666504,4240.769043,4245.512695,4237.948730,4281.666504,4247.692383,4246.025879,4241.538574,4266.410156,4257.179688,4195.769043,4230.769043,4227.436035,4245.641113,3594.000000,1.000000,15.000000,,,,0.000000,4.000000,4.000000,4.000000,4.000000,4.000000,4.000000,4.000000,4.000000,4.000000,4.000000,4.000000,4.000000,4.000000,4.000000,100.000000,,,,,,,,,,,,,,,,,,,,,,,,,,,,
1649271260.948151,1649271260.950378,103.000000,0.000000,4248.333496,4251.025879,4247.692383,4252.179688,4297.563965,4246.410156,4235.769043,4227.436035,4262.820313,4248.077148,4197.051270,4232.179688,4220.769043,4245.384766,3589.000000,1.000000,15.000000,,,,0.000000,4.000000,4.000000,4.000000,4.000000,4.000000,4.000000,4.000000,4.000000,4.000000,4.000000,4.000000,4.000000,4.000000,4.000000,100.000000,,,,,,,,,,,,,,,,,,,,,,,,,,,,
1649271260.955957,1649271260.958182,104.000000,0.000000,4242.948730,4250.512695,4240.641113,4252.307617,4287.307617,4238.205078,4224.487305,4228.717773,4260.000000,4246.538574,4186.282227,4227.563965,4214.743652,4232.179688,3547.000000,1.000000,15.000000,,,,0.000000,4.000000,4.000000,4.000000,4.000000,4.000000,4.000000,4.000000,4.000000,4.000000,4.000000,4.000000,4.000000,4.000000,4.000000,100.000000,,,,,,,,,,,,,,,,,26.000000,0.000000,0.351625,0.614380,-0.392883,0.586975,1.012711,-0.001953,-0.065919,-27.066454,-92.564278,-7.327382
1649271260.963763,1649271260.965986,105.000000,0.000000,4243.205078,4247.563965,4238.077148,4245.384766,4277.563965,4237.307617,4237.563965,4243.461426,4272.436035,4262.179688,4188.717773,4225.641113,4222.563965,4231.282227,3498.000000,1.000000,15.000000,,,,0.000000,4.000000,4.000000,4.000000,4.000000,4.000000,4.000000,4.000000,4.000000,4.000000,4.000000,4.000000,4.000000,4.000000,4.000000,100.000000,,,,,,,,,,,,,,,,,,,,,,,,,,,,
1649271260.971570,1649271260.973790,106.000000,0.000000,4249.230957,4248.205078,4246.922852,4247.820313,4283.333496,4245.769043,4247.179688,4253.846191,4282.179688,4269.102539,4201.794922,4230.897461,4233.717773,4242.563965,3594.000000,1.000000,15.000000,,,,0.000000,4.000000,4.000000,4.000000,4.000000,4.000000,4.000000,4.000000,4.000000,4.000000,4.000000,4.000000,4.000000,4.000000,4.000000,100.000000,,,,,,,,,,,,,,,,,,,,,,,,,,,,
1649271260.979376,1649271260.981595,107.000000,0.000000,4246.666504,4243.461426,4247.179688,4244.358887,4277.948730,4246.922852,4235.256348,4247.692383,4266.282227,4260.641113,4200.897461,4231.410156,4231.922852,4239.615234,3589.000000,1.000000,15.000000,,,,0.000000,4.000000,4.000000,4.000000,4.000000,4.000000,4.000000,4.000000,4.000000,4.000000,4.000000,4.000000,4.000000,4.000000,4.000000,100.000000,,,,,,,,,,,,,,,,,,,,,,,,,,,,
1649271260.987183,1649271260.989399,108.000000,0.000000,4247.820313,4247.179688,4247.436035,4245.897461,4272.948730,4238.974121,4235.641113,4244.615234,4254.358887,4261.410156,4197.436035,4232.563965,4230.256348,4238.974121,3547.000000,1.000000,15.000000,,,,0.000000,4.000000,4.000000,4.000000,4.000000,4.000000,4.000000,4.000000,4.000000,4.000000,4.000000,4.000000,4.000000,4.000000,4.000000,100.000000,,,,,,,,,,,,,,,,,27.000000,0.000000,0.352022,0.614502,-0.393066,0.586487,1.015152,0.004883,-0.067384,-27.664606,-91.667046,-8.523689
1649271260.994989,1649271260.997203,109.000000,0.000000,4252.436035,4249.615234,4251.666504,4250.769043,4280.512695,4234.615234,4248.461426,4252.179688,4263.333496,4264.615234,4203.461426,4236.922852,4234.743652,4249.743652,3498.000000,1.000000,15.000000,,,,0.000000,4.000000,4.000000,4.000000,4.000000,4.000000,4.000000,4.000000,4.000000,4.000000,4.000000,4.000000,4.000000,4.000000,4.000000,100.000000,,,,,,,,,,,,,,,,,,,,,,,,,,,,
1649271261.002795,1649271261.005007,110.000000,0.000000,4249.230957,4240.769043,4249.871582,4243.589844,4277.820313,4238.846191,4248.846191,4249.358887,4264.358887,4258.846191,4203.205078,4237.179688,4231.153809,4248.333496,3594.000000,1.000000,15.000000,,,,0.000000,4.000000,4.000000,4.000000,4.000000,4.000000,4.000000,4.000000,4.000000,4.000000,4.000000,4.000000,4.000000,4.000000,4.000000,100.000000,,,,,,,,,,,,,,,,,,,,,,,,,,,,
1649271261.010602,1649271261.012811,111.000000,0.000000,4254.871582,4245.897461,4256.922852,4246.025879,4275.128418,4246.922852,4246.410156,4245.384766,4257.051270,4261.666504,4198.717773,4242.563965,4227.051270,4246.538574,3589.000000,1.000000,15.000000,,,,0.000000,4.000000,4.000000,4.000000,4.000000,4.000000,4.000000,4.000000,4.000000,4.000000,4.000000,4.000000,4.000000,4.000000,4.000000,100.000000,,,,,,,,,,,,,,,,,,,,,,,,,,,,
1649271261.018408,1649271261.020615,112.000000,0.000000,4262.179688,4251.025879,4263.717773,4250.897461,4282.051270,4249.615234,4251.025879,4254.102539,4260.769043,4265.128418,4202.436035,4249.358887,4229.743652,4255.769043,3547.000000,1.000000,15.000000,,,,0.000000,4.000000,4.000000,4.000000,4.000000,4.000000,4.000000,4.000000,4.000000,4.000000,4.000000,4.000000,4.000000,4.000000,4.000000,100.000000,,,,,,,,,,,,,,,,,28.000000,0.000000,0.352687,0.614624,-0.393372,0.585754,0.998062,-0.001953,-0.070314,-28.262760,-92.863358,-9.121843
1649271261.026214,1649271261.028420,113.000000,0.000000,4249.487305,4236.153809,4250.256348,4237.307617,4278.333496,4242.692383,4245.897461,4250.384766,4261.666504,4250.384766,4199.615234,4237.436035,4224.358887,4246.794922,3498.000000,1.000000,15.000000,,,,0.000000,4.000000,4.000000,4.000000,4.000000,4.000000,4.000000,4.000000,4.000000,4.000000,4.000000,4.000000,4.000000,4.000000,4.000000,100.000000,,,,,,,,,,,,,,,,,,,,,,,,,,,,
1649271261.034021,1649271261.036224,114.000000,0.000000,4241.922852,4234.615234,4243.205078,4232.179688,4274.615234,4243.974121,4241.538574,4240.000000,4258.077148,4246.025879,4193.461426,4227.948730,4221.666504,4236.794922,3594.000000,1.000000,15.000000,,,,0.000000,4.000000,4.000000,4.000000,4.000000,4.000000,4.000000,4.000000,4.000000,4.000000,4.000000,4.000000,4.000000,4.000000,4.000000,100.000000,,,,,,,,,,,,,,,,,,,,,,,,,,,,
1649271261.041827,1649271261.044128,115.000000,0.000000,4250.256348,4248.846191,4250.128418,4245.769043,4280.769043,4248.077148,4243.846191,4244.743652,4263.205078,4262.692383,4202.692383,4238.717773,4232.436035,4245.384766,3589.000000,1.000000,15.000000,,,,0.000000,4.000000,4.000000,4.000000,4.000000,4.000000,4.000000,4.000000,4.000000,4.000000,4.000000,4.000000,4.000000,4.000000,4.000000,100.000000,,,,,,,,,,,,,,,,,,,,,,,,,,,,
1649271261.049633,1649271261.052032,116.000000,0.000000,4251.025879,4248.974121,4251.666504,4248.205078,4280.897461,4249.230957,4247.820313,4257.820313,4275.000000,4275.000000,4217.179688,4247.692383,4243.077148,4251.794922,3547.000000,1.000000,15.000000,,,,0.000000,4.000000,4.000000,4.000000,4.000000,4.000000,4.000000,4.000000,4.000000,4.000000,4.000000,4.000000,4.000000,4.000000,4.000000,100.000000,,,,,,,,,,,,,,,,,29.000000,0.000000,0.353310,0.614807,-0.393616,0.585022,0.999039,0.004395,-0.065919,-28.412298,-92.265205,-5.981536
1649271261.057440,1649271261.059836,117.000000,0.000000,4252.692383,4248.077148,4253.974121,4246.282227,4285.128418,4258.589844,4256.538574,4262.948730,4280.897461,4277.820313,4217.948730,4246.794922,4247.051270,4252.051270,3498.000000,1.000000,15.000000,,,,0.000000,4.000000,4.000000,4.000000,4.000000,4.000000,4.000000,4.000000,4.000000,4.000000,4.000000,4.000000,4.000000,4.000000,4.000000,100.000000,,,,,,,,,,,,,,,,,,,,,,,,,,,,
1649271261.065246,1649271261.067640,118.000000,0.000000,4262.692383,4255.897461,4263.589844,4253.589844,4294.743652,4261.922852,4257.820313,4263.589844,4275.128418,4280.128418,4218.333496,4247.692383,4250.128418,4254.615234,3594.000000,1.000000,15.000000,,,,0.000000,4.000000,4.000000,4.000000,4.000000,4.000000,4.000000,4.000000,4.000000,4.000000,4.000000,4.000000,4.000000,4.000000,4.000000,100.000000,,,,,,,,,,,,,,,,,,,,,,,,,,,,
1649271261.073053,1649271261.075344,119.000000,0.000000,4257.692383,4250.000000,4262.179688,4247.948730,4285.897461,4251.538574,4251.794922,4265.000000,4265.769043,4276.025879,4217.948730,4249.230957,4249.487305,4253.461426,3589.000000,1.000000,15.000000,,,,0.000000,4.000000,4.000000,4.000000,4.000000,4.000000,4.000000,4.000000,4.000000,4.000000,4.000000,4.000000,4.000000,4.000000,4.000000,100.000000,,,,,,,,,,,,,,,,,,,,,,,,,,,,
1649271261.080859,1649271261.083248,120.000000,0.000000,4242.563965,4239.102539,4246.666504,4237.692383,4271.153809,4243.974121,4244.487305,4258.846191,4260.000000,4263.974121,4205.128418,4243.205078,4242.563965,4242.179688,3547.000000,1.000000,15.000000,,,,0.000000,4.000000,4.000000,4.000000,4.000000,4.000000,4.000000,4.000000,4.000000,4.000000,4.000000,4.000000,4.000000,4.000000,4.000000,100.000000,,,,,,,,,,,,,,,,,30.000000,0.000000,0.353439,0.614868,-0.393677,0.584839,0.984390,0.012207,-0.081056,-27.215992,-92.713814,-7.476921
1649271261.088665,1649271261.091052,121.000000,0.000000,4247.563965,4246.794922,4245.769043,4247.051270,4278.846191,4248.333496,4247.563965,4258.974121,4267.179688,4264.102539,4207.436035,4243.461426,4243.589844,4246.025879,3498.000000,1.000000,15.000000,,,,0.000000,4.000000,4.000000,4.000000,4.000000,4.000000,4.000000,4.000000,4.000000,4.000000,4.000000,4.000000,4.000000,4.000000,4.000000,100.000000,,,,,,,,,,,,,,,,,,,,,,,,,,,,
1649271261.096472,1649271261.098856,122.000000,0.000000,4261.153809,4260.897461,4260.769043,4259.871582,4293.717773,4251.025879,4257.563965,4269.487305,4280.256348,4278.461426,4221.410156,4250.256348,4247.563965,4257.563965,3594.000000,1.000000,15.000000,,,,0.000000,4.000000,4.000000,4.000000,4.000000,4.000000,4.000000,4.000000,4.000000,4.000000,4.000000,4.000000,4.000000,4.000000,4.000000,100.000000,,,,,,,,,,,,,,,,,,,,,,,,,,,,
1649271261.104278,1649271261.106560,123.000000,0.000000,4258.974121,4263.077148,4261.922852,4260.384766,4296.794922,4248.846191,4256.666504,4269.102539,4284.487305,4279.871582,4216.538574,4246.538574,4243.846191,4251.538574,3589.000000,1.000000,15.000000,,,,0.000000,4.000000,4.000000,4.000000,4.000000,4.000000,4.000000,4.000000,4.000000,4.000000,4.000000,4.000000,4.000000,4.000000,4.000000,100.000000,,,,,,,,,,,,,,,,,,,,,,,,,,,,
1649271261.112085,1649271261.114464,124.000000,0.000000,4256.282227,4260.128418,4256.922852,4259.358887,4294.871582,4249.615234,4249.743652,4256.025879,4281.538574,4265.000000,4210.641113,4243.846191,4242.179688,4249.615234,3547.000000,1.000000,15.000000,,,,0.000000,4.000000,4.000000,4.000000,4.000000,4.000000,4.000000,4.000000,4.000000,4.000000,4.000000,4.000000,4.000000,4.000000,4.000000,100.000000,,,,,,,,,,,,,,,,,31.000000,0.000000,0.353295,0.614990,-0.393616,0.584839,1.002457,-0.003906,-0.071290,-29.010452,-91.068893,-7.626459
1649271261.119891,1649271261.122268,125.000000,0.000000,4266.410156,4260.384766,4264.615234,4261.666504,4295.512695,4251.666504,4250.641113,4252.820313,4282.820313,4261.410156,4219.358887,4251.922852,4246.282227,4260.512695,3498.000000,1.000000,15.000000,,,,0.000000,4.000000,4.000000,4.000000,4.000000,4.000000,4.000000,4.000000,4.000000,4.000000,4.000000,4.000000,4.000000,4.000000,4.000000,100.000000,,,,,,,,,,,,,,,,,,,,,,,,,,,,
1649271261.127697,1649271261.130073,126.000000,0.000000,4262.948730,4261.153809,4260.128418,4261.410156,4296.153809,4248.974121,4249.102539,4245.769043,4278.461426,4258.077148,4211.153809,4243.717773,4240.000000,4256.025879,3594.000000,1.000000,15.000000,,,,0.000000,4.000000,4.000000,4.000000,4.000000,4.000000,4.000000,4.000000,4.000000,4.000000,4.000000,4.000000,4.000000,4.000000,4.000000,100.000000,,,,,,,,,,,,,,,,,,,,,,,,,,,,
1649271261.135503,1649271261.137777,127.000000,0.000000,4246.410156,4259.743652,4243.205078,4258.077148,4290.897461,4243.589844,4239.102539,4227.948730,4264.487305,4242.948730,4193.846191,4226.282227,4228.077148,4240.256348,52.000000,1.000000,15.000000,,,,0.000000,4.000000,4.000000,4.000000,4.000000,4.000000,4.000000,4.000000,4.000000,4.000000,4.000000,4.000000,4.000000,4.000000,4.000000,100.000000,,,,,,,,,,,,,,,,,,,,,,,,,,,,
1649271261.143310,1649271261.145681,0.000000,0.000000,4250.641113,4261.922852,4251.025879,4261.794922,4291.538574,4247.179688,4246.410156,4238.461426,4265.641113,4250.512695,4205.512695,4237.948730,4234.102539,4247.948730,3520.000000,1.000000,15.000000,,,,0.000000,4.000000,4.000000,4.000000,4.000000,4.000000,4.000000,4.000000,4.000000,4.000000,4.000000,4.000000,4.000000,4.000000,4.000000,100.000000,,,,,,,,,,,,,,,,,0.000000,0.000000,0.352967,0.614929,-0.393188,0.585388,1.008316,-0.022461,-0.062013,-28.561836,-91.816589,-6.579690
1649271261.151116,1649271261.153485,1.000000,0.000000,4259.487305,4259.487305,4260.897461,4263.333496,4297.436035,4250.384766,4255.000000,4257.820313,4271.666504,4263.717773,4213.589844,4250.000000,4239.102539,4255.897461,3591.000000,1.000000,15.000000,,,,0.000000,4.000000,4.000000,4.000000,4.000000,4.000000,4.000000,4.000000,4.000000,4.000000,4.000000,4.000000,4.000000,4.000000,4.000000,100.000000,,,,,,,,,,,,,,,,,,,,,,,,,,,,
1649271261.158923,1649271261.161389,2.000000,0.000000,4249.230957,4248.333496,4248.846191,4250.512695,4295.256348,4245.769043,4246.282227,4250.256348,4264.615234,4250.512695,4197.820313,4232.820313,4229.615234,4244.358887,3529.000000,1.000000,15.000000,,,,0.000000,4.000000,4.000000,4.000000,4.000000,4.000000,4.000000,4.000000,4.000000,4.000000,4.000000,4.000000,4.000000,4.000000,4.000000,100.000000,,,,,,,,,,,,,,,,,,,,,,,,,,,,
1649271261.166729,1649271261.169193,3.000000,0.000000,4244.871582,4245.641113,4245.000000,4243.589844,4292.948730,4250.256348,4249.230957,4247.179688,4267.692383,4245.384766,4201.538574,4228.974121,4233.077148,4241.666504,3584.000000,1.000000,15.000000,,,,0.000000,4.000000,4.000000,4.000000,4.000000,4.000000,4.000000,4.000000,4.000000,4.000000,4.000000,4.000000,4.000000,4.000000,4.000000,100.000000,,,,,,,,,,,,,,,,,,,,,,,,,,,,
1649271261.174535,1649271261.177096,4.000000,0.000000,4252.307617,4250.641113,4253.717773,4249.743652,4296.666504,4260.769043,4263.077148,4266.666504,4284.615234,4263.205078,4225.000000,4244.615234,4249.487305,4250.000000,3626.000000,1.000000,15.000000,,,,0.000000,4.000000,4.000000,4.000000,4.000000,4.000000,4.000000,4.000000,4.000000,4.000000,4.000000,4.000000,4.000000,4.000000,4.000000,100.000000,,,,,,,,,,,,,,,,,1.000000,0.000000,0.352773,0.614868,-0.392639,0.585938,1.024430,0.004883,-0.061524,-28.561836,-90.620277,-8.374151
1649271261.182342,1649271261.184900,5.000000,0.000000,4251.666504,4248.077148,4251.538574,4249.230957,4296.282227,4261.282227,4266.282227,4275.641113,4282.692383,4271.666504,4220.256348,4241.282227,4247.820313,4250.128418,3598.000000,1.000000,15.000000,,,,0.000000,4.000000,4.000000,4.000000,4.000000,4.000000,4.000000,4.000000,4.000000,4.000000,4.000000,4.000000,4.000000,4.000000,4.000000,100.000000,,,,,,,,,,,,,,,,,,,,,,,,,,,,
1649271261.190148,1649271261.192804,6.000000,0.000000,4243.333496,4244.358887,4244.230957,4244.102539,4294.230957,4259.230957,4263.717773,4267.692383,4265.384766,4263.205078,4199.230957,4229.230957,4233.333496,4237.179688,3580.000000,1.000000,15.000000,,,,0.000000,4.000000,4.000000,4.000000,4.000000,4.000000,4.000000,4.000000,4.000000,4.000000,4.000000,4.000000,4.000000,4.000000,4.000000,100.000000,,,,,,,,,,,,,,,,,,,,,,,,,,,,
1649271261.197955,1649271261.200608,7.000000,0.000000,4239.871582,4246.025879,4244.487305,4246.282227,4297.436035,4263.717773,4264.230957,4264.230957,4258.589844,4254.358887,4197.692383,4230.256348,4229.487305,4230.512695,3614.000000,1.000000,15.000000,,,,0.000000,4.000000,4.000000,4.000000,4.000000,4.000000,4.000000,4.000000,4.000000,4.000000,4.000000,4.000000,4.000000,4.000000,4.000000,100.000000,,,,,,,,,,,,,,,,,,,,,,,,,,,,
1649271261.205761,1649271261.208512,8.000000,0.000000,4242.692383,4248.077148,4246.410156,4246.794922,4297.948730,4262.179688,4262.948730,4263.846191,4262.436035,4248.717773,4201.666504,4233.077148,4230.128418,4238.077148,2143.000000,1.000000,15.000000,,,,0.000000,4.000000,4.000000,4.000000,4.000000,4.000000,4.000000,4.000000,4.000000,4.000000,4.000000,4.000000,4.000000,4.000000,4.000000,100.000000,1.000000,100.000000,4.000000,4.000000,4.000000,4.000000,4.000000,4.000000,4.000000,4.000000,4.000000,4.000000,4.000000,4.000000,4.000000,4.000000,2.000000,0.000000,0.352784,0.614746,-0.392456,0.586182,1.014176,-0.001465,-0.067384,-27.963684,-91.966125,-7.775998
1649271261.213567,1649271261.216316,9.000000,0.000000,4249.871582,4251.794922,4249.487305,4248.205078,4298.205078,4252.820313,4261.538574,4263.846191,4276.538574,4248.974121,4203.717773,4237.692383,4228.846191,4246.410156,3612.000000,1.000000,15.000000,,,,0.000000,4.000000,4.000000,4.000000,4.000000,4.000000,4.000000,4.000000,4.000000,4.000000,4.000000,4.000000,4.000000,4.000000,4.000000,100.000000,,,,,,,,,,,,,,,,,,,,,,,,,,,,
1649271261.221373,1649271261.224120,10.000000,0.000000,4253.846191,4260.256348,4252.563965,4258.461426,4301.538574,4248.974121,4260.897461,4267.179688,4284.487305,4253.333496,4210.128418,4245.000000,4232.179688,4247.051270,3601.000000,1.000000,15.000000,,,,0.000000,4.000000,4.000000,4.000000,4.000000,4.000000,4.000000,4.000000,4.000000,4.000000,4.000000,4.000000,4.000000,4.000000,4.000000,100.000000,,,,,,,,,,,,,,,,,,,,,,,,,,,,
1649271261.229180,1649271261.231824,11.000000,0.000000,4248.461426,4254.230957,4247.692383,4252.692383,4300.512695,4252.436035,4253.589844,4261.666504,4266.538574,4247.820313,4206.025879,4237.436035,4229.615234,4237.948730,3596.000000,1.000000,15.000000,,,,0.000000,4.000000,4.000000,4.000000,4.000000,4.000000,4.000000,4.000000,4.000000,4.000000,4.000000,4.000000,4.000000,4.000000,4.000000,100.000000,,,,,,,,,,,,,,,,,,,,,,,,,,,,
1649271261.236986,1649271261.239728,12.000000,0.000000,4239.871582,4232.692383,4239.487305,4231.794922,4289.487305,4253.974121,4245.384766,4247.307617,4245.128418,4239.743652,4195.000000,4224.358887,4222.436035,4228.461426,3552.000000,1.000000,15.000000,,,,0.000000,4.000000,4.000000,4.000000,4.000000,4.000000,4.000000,4.000000,4.000000,4.000000,4.000000,4.000000,4.000000,4.000000,4.000000,100.000000,,,,,,,,,,,,,,,,,3.000000,0.000000,0.352725,0.614624,-0.392700,0.586182,1.001968,-0.000488,-0.066896,-26.169222,-93.311974,-6.878767
1649271261.244793,1649271261.247531,13.000000,0.000000,4247.948730,4236.025879,4246.922852,4237.820313,4285.769043,4249.615234,4250.384766,4252.692383,4249.615234,4252.820313,4204.743652,4236.794922,4232.692383,4237.820313,3504.000000,1.000000,15.000000,,,,0.000000,4.000000,4.000000,4.000000,4.000000,4.000000,4.000000,4.000000,4.000000,4.000000,4.000000,4.000000,4.000000,4.000000,4.000000,100.000000,,,,,,,,,,,,,,,,,,,,,,,,,,,,
1649271261.252599,1649271261.255235,14.000000,0.000000,4266.794922,4262.563965,4264.487305,4262.820313,4297.820313,4248.205078,4259.230957,4271.538574,4252.051270,4267.051270,4222.563965,4255.512695,4247.692383,4255.384766,3601.000000,1.000000,15.000000,,,,0.000000,4.000000,4.000000,4.000000,4.000000,4.000000,4.000000,4.000000,4.000000,4.000000,4.000000,4.000000,4.000000,4.000000,4.000000,100.000000,,,,,,,,,,,,,,,,,,,,,,,,,,,,
1649271261.260405,1649271261.263039,15.000000,0.000000,4263.846191,4259.230957,4266.153809,4260.000000,4303.333496,4256.666504,4257.436035,4271.025879,4233.846191,4251.282227,4219.230957,4250.256348,4245.256348,4252.692383,3596.000000,1.000000,15.000000,,,,0.000000,4.000000,4.000000,4.000000,4.000000,4.000000,4.000000,4.000000,4.000000,4.000000,4.000000,4.000000,4.000000,4.000000,4.000000,100.000000,,,,,,,,,,,,,,,,,,,,,,,,,,,,
1649271261.268212,1649271261.270743,16.000000,0.000000,4249.230957,4234.230957,4256.538574,4239.487305,4294.615234,4264.487305,4259.487305,4268.461426,4231.794922,4245.512695,4213.589844,4243.717773,4242.692383,4244.615234,0.000000,1.000000,15.000000,,,,0.000000,4.000000,4.000000,4.000000,4.000000,4.000000,4.000000,4.000000,4.000000,4.000000,4.000000,4.000000,4.000000,4.000000,4.000000,100.000000,,,,,,,,,,,,,,,,,4.000000,0.000000,0.352756,0.614624,-0.393127,0.585876,1.004410,0.013184,-0.072755,-26.767376,-90.470741,-7.775998
1649271261.276018,1649271261.278547,17.000000,0.000000,4252.307617,4241.666504,4255.512695,4243.974121,4290.897461,4258.461426,4263.461426,4272.948730,4246.282227,4266.538574,4215.512695,4246.282227,4242.948730,4247.051270,0.000000,1.000000,15.000000,,,,0.000000,4.000000,4.000000,4.000000,4.000000,4.000000,4.000000,4.000000,4.000000,4.000000,4.000000,4.000000,4.000000,4.000000,4.000000,100.000000,,,,,,,,,,,,,,,,,,,,,,,,,,,,
1649271261.283825,1649271261.286251,18.000000,0.000000,4249.230957,4254.615234,4249.743652,4253.205078,4295.769043,4246.666504,4251.025879,4259.358887,4246.794922,4258.205078,4206.794922,4237.948730,4231.025879,4240.000000,0.000000,1.000000,15.000000,,,,0.000000,4.000000,4.000000,4.000000,4.000000,4.000000,4.000000,4.000000,4.000000,4.000000,4.000000,4.000000,4.000000,4.000000,4.000000,100.000000,,,,,,,,,,,,,,,,,,,,,,,,,,,,
1649271261.291631,1649271261.294055,19.000000,0.000000,4232.692383,4237.179688,4236.410156,4237.692383,4290.769043,4243.974121,4239.487305,4243.974121,4242.307617,4228.461426,4197.692383,4225.641113,4223.077148,4227.820313,0.000000,1.000000,15.000000,,,,0.000000,4.000000,4.000000,4.000000,4.000000,4.000000,4.000000,4.000000,4.000000,4.000000,4.000000,4.000000,4.000000,4.000000,4.000000,100.000000,,,,,,,,,,,,,,,,,,,,,,,,,,,,
1649271261.299437,1649271261.301759,20.000000,0.000000,4234.615234,4230.512695,4237.307617,4226.922852,4288.205078,4248.846191,4246.922852,4250.128418,4249.230957,4232.179688,4202.948730,4228.717773,4230.641113,4228.589844,0.000000,1.000000,15.000000,,,,0.000000,4.000000,4.000000,4.000000,4.000000,4.000000,4.000000,4.000000,4.000000,4.000000,4.000000,4.000000,4.000000,4.000000,4.000000,100.000000,,,,,,,,,,,,,,,,,5.000000,0.000000,0.352781,0.614685,-0.393555,0.585510,1.004410,-0.008301,-0.066896,-26.767376,-91.966125,-7.028306
1649271261.307243,1649271261.309563,21.000000,0.000000,4246.282227,4245.000000,4248.077148,4238.205078,4296.538574,4253.077148,4251.153809,4253.589844,4251.666504,4251.025879,4203.974121,4233.333496,4233.717773,4233.205078,0.000000,1.000000,15.000000,,,,0.000000,4.000000,4.000000,4.000000,4.000000,4.000000,4.000000,4.000000,4.000000,4.000000,4.000000,4.000000,4.000000,4.000000,4.000000,100.000000,,,,,,,,,,,,,,,,,,,,,,,,,,,,
1649271261.315050,1649271261.317267,22.000000,0.000000,4242.436035,4251.282227,4246.922852,4249.615234,4296.282227,4243.717773,4239.615234,4246.025879,4246.922852,4247.307617,4200.128418,4226.410156,4228.589844,4230.000000,0.000000,1.000000,15.000000,,,,0.000000,4.000000,4.000000,4.000000,4.000000,4.000000,4.000000,4.000000,4.000000,4.000000,4.000000,4.000000,4.000000,4.000000,4.000000,100.000000,,,,,,,,,,,,,,,,,,,,,,,,,,,,
1649271261.322856,1649271261.325171,23.000000,0.000000,4234.230957,4247.307617,4236.666504,4248.333496,4288.717773,4230.769043,4231.538574,4241.025879,4244.358887,4233.846191,4199.615234,4218.077148,4224.743652,4223.205078,0.000000,1.000000,15.000000,,,,0.000000,4.000000,4.000000,4.000000,4.000000,4.000000,4.000000,4.000000,4.000000,4.000000,4.000000,4.000000,4.000000,4.000000,4.000000,100.000000,,,,,,,,,,,,,,,,,,,,,,,,,,,,
1649271261.330663,1649271261.333075,24.000000,0.000000,4230.512695,4245.897461,4230.769043,4243.717773,4289.871582,4238.333496,4233.333496,4236.153809,4238.717773,4229.358887,4190.128418,4214.230957,4219.871582,4216.538574,0.000000,1.000000,15.000000,,,,0.000000,4.000000,4.000000,4.000000,4.000000,4.000000,4.000000,4.000000,4.000000,4.000000,4.000000,4.000000,4.000000,4.000000,4.000000,100.000000,,,,,,,,,,,,,,,,,6.000000,0.000000,0.352624,0.614441,-0.394348,0.585327,1.003922,0.006348,-0.069337,-26.468300,-91.667046,-7.476921
1649271261.338469,1649271261.340879,25.000000,0.000000,4226.025879,4242.051270,4227.563965,4242.051270,4287.307617,4246.538574,4234.487305,4232.307617,4230.769043,4231.282227,4179.102539,4211.922852,4213.461426,4212.051270,0.000000,1.000000,15.000000,,,,0.000000,4.000000,4.000000,4.000000,4.000000,4.000000,4.000000,4.000000,4.000000,4.000000,4.000000,4.000000,4.000000,4.000000,4.000000,100.000000,,,,,,,,,,,,,,,,,,,,,,,,,,,,
1649271261.346275,1649271261.348684,26.000000,0.000000,4229.230957,4246.538574,4230.256348,4248.461426,4281.538574,4236.153809,4230.641113,4236.666504,4232.436035,4231.153809,4188.717773,4212.948730,4215.897461,4215.000000,0.000000,1.000000,15.000000,,,,0.000000,4.000000,4.000000,4.000000,4.000000,4.000000,4.000000,4.000000,4.000000,4.000000,4.000000,4.000000,4.000000,4.000000,4.000000,100.000000,,,,,,,,,,,,,,,,,,,,,,,,,,,,
1649271261.354082,1649271261.356488,27.000000,0.000000,4237.051270,4258.205078,4239.615234,4257.820313,4290.384766,4235.128418,4229.102539,4242.820313,4244.487305,4232.307617,4200.256348,4221.666504,4227.948730,4225.384766,0.000000,1.000000,15.000000,,,,0.000000,4.000000,4.000000,4.000000,4.000000,4.000000,4.000000,4.000000,4.000000,4.000000,4.000000,4.000000,4.000000,4.000000,4.000000,100.000000,,,,,,,,,,,,,,,,,,,,,,,,,,,,
1649271261.361888,1649271261.364192,28.000000,0.000000,4240.384766,4256.538574,4245.641113,4254.615234,4296.922852,4250.512695,4233.974121,4245.769043,4253.717773,4235.128418,4199.487305,4229.102539,4234.358887,4233.846191,0.000000,1.000000,15.000000,,,,0.000000,4.000000,4.000000,4.000000,4.000000,4.000000,4.000000,4.000000,4.000000,4.000000,4.000000,4.000000,4.000000,4.000000,4.000000,100.000000,,,,,,,,,,,,,,,,,7.000000,0.000000,0.352508,0.614136,-0.394836,0.585388,0.999039,-0.006836,-0.066407,-27.215992,-91.966125,-7.028306
1649271261.369695,1649271261.372096,29.000000,0.000000,4244.358887,4249.358887,4246.794922,4247.563965,4292.820313,4249.487305,4235.384766,4245.384766,4250.000000,4233.589844,4199.871582,4229.615234,4230.769043,4231.922852,0.000000,1.000000,15.000000,,,,0.000000,4.000000,4.000000,4.000000,4.000000,4.000000,4.000000,4.000000,4.000000,4.000000,4.000000,4.000000,4.000000,4.000000,4.000000,100.000000,,,,,,,,,,,,,,,,,,,,,,,,,,,,
1649271261.377501,1649271261.379900,30.000000,0.000000,4245.641113,4250.641113,4243.846191,4250.256348,4292.563965,4237.820313,4231.794922,4237.307617,4236.153809,4234.230957,4200.769043,4227.563965,4229.743652,4229.615234,0.000000,1.000000,15.000000,,,,0.000000,4.000000,4.000000,4.000000,4.000000,4.000000,4.000000,4.000000,4.000000,4.000000,4.000000,4.000000,4.000000,4.000000,4.000000,100.000000,,,,,,,,,,,,,,,,,,,,,,,,,,,,
1649271261.385307,1649271261.387703,31.000000,0.000000,4248.717773,4252.692383,4246.666504,4252.820313,4291.025879,4239.358887,4229.102539,4231.153809,4232.051270,4245.897461,4204.487305,4230.769043,4239.487305,4240.128418,0.000000,1.000000,15.000000,,,,0.000000,4.000000,4.000000,4.000000,4.000000,4.000000,4.000000,4.000000,4.000000,4.000000,4.000000,4.000000,4.000000,4.000000,4.000000,100.000000,,,,,,,,,,,,,,,,,,,,,,,,,,,,
1649271261.393113,1649271261.395508,32.000000,0.000000,4262.307617,4257.179688,4261.282227,4256.794922,4290.000000,4241.538574,4231.538574,4235.384766,4242.820313,4250.000000,4215.384766,4242.436035,4247.692383,4250.769043,0.000000,1.000000,15.000000,,,,0.000000,4.000000,4.000000,4.000000,4.000000,4.000000,4.000000,4.000000,4.000000,4.000000,4.000000,4.000000,4.000000,4.000000,4.000000,100.000000,,,,,,,,,,,,,,,,,8.000000,0.000000,0.352139,0.613525,-0.395752,0.585632,1.004898,-0.002441,-0.068360,-27.365530,-93.910126,-7.925536
1649271261.400920,1649271261.403312,33.000000,0.000000,4265.512695,4263.589844,4266.922852,4262.563965,4293.461426,4233.589844,4232.307617,4235.769043,4248.846191,4238.589844,4218.846191,4246.410156,4245.256348,4249.743652,0.000000,1.000000,15.000000,,,,0.000000,4.000000,4.000000,4.000000,4.000000,4.000000,4.000000,4.000000,4.000000,4.000000,4.000000,4.000000,4.000000,4.000000,4.000000,100.000000,,,,,,,,,,,,,,,,,,,,,,,,,,,,
1649271261.408726,1649271261.411116,34.000000,0.000000,4250.769043,4250.641113,4252.307617,4248.974121,4282.179688,4228.717773,4233.077148,4232.307617,4250.512695,4236.922852,4212.563965,4236.282227,4243.974121,4245.512695,0.000000,1.000000,15.000000,,,,0.000000,4.000000,4.000000,4.000000,4.000000,4.000000,4.000000,4.000000,4.000000,4.000000,4.000000,4.000000,4.000000,4.000000,4.000000,100.000000,,,,,,,,,,,,,,,,,,,,,,,,,,,,
1649271261.416533,1649271261.419020,35.000000,0.000000,4250.128418,4241.666504,4248.589844,4240.000000,4271.538574,4238.077148,4240.128418,4244.230957,4263.077148,4246.922852,4212.051270,4235.512695,4245.641113,4246.025879,0.000000,1.000000,15.000000,,,,0.000000,4.000000,4.000000,4.000000,4.000000,4.000000,4.000000,4.000000,4.000000,4.000000,4.000000,4.000000,4.000000,4.000000,4.000000,100.000000,,,,,,,,,,,,,,,,,,,,,,,,,,,,
1649271261.424339,1649271261.426924,36.000000,0.000000,4264.358887,4258.205078,4263.974121,4258.205078,4287.948730,4249.358887,4247.563965,4260.512695,4267.563965,4248.974121,4221.153809,4250.128418,4249.743652,4247.948730,0.000000,1.000000,15.000000,,,,0.000000,4.000000,4.000000,4.000000,4.000000,4.000000,4.000000,4.000000,4.000000,4.000000,4.000000,4.000000,4.000000,4.000000,4.000000,100.000000,,,,,,,,,,,,,,,,,9.000000,0.000000,0.351210,0.613098,-0.396606,0.586060,1.002457,-0.015137,-0.074220,-29.010452,-92.564278,-6.878767
1649271261.432145,1649271261.434728,37.000000,0.000000,4263.461426,4260.128418,4264.615234,4261.153809,4297.436035,4251.794922,4251.025879,4265.641113,4253.077148,4249.871582,4227.692383,4251.666504,4256.922852,4251.153809,0.000000,1.000000,15.000000,,,,0.000000,4.000000,4.000000,4.000000,4.000000,4.000000,4.000000,4.000000,4.000000,4.000000,4.000000,4.000000,4.000000,4.000000,4.000000,100.000000,,,,,,,,,,,,,,,,,,,,,,,,,,,,
1649271261.439952,1649271261.442532,38.000000,0.000000,4249.743652,4243.333496,4249.358887,4242.948730,4283.333496,4250.384766,4248.461426,4257.436035,4243.717773,4244.487305,4216.666504,4235.256348,4250.769043,4246.025879,0.000000,1.000000,15.000000,,,,0.000000,4.000000,4.000000,4.000000,4.000000,4.000000,4.000000,4.000000,4.000000,4.000000,4.000000,4.000000,4.000000,4.000000,4.000000,100.000000,,,,,,,,,,,,,,,,,,,,,,,,,,,,
1649271261.447758,1649271261.450236,39.000000,0.000000,4244.102539,4243.077148,4243.589844,4243.205078,4272.051270,4243.205078,4243.846191,4249.487305,4246.794922,4233.461426,4204.358887,4227.563965,4241.282227,4234.487305,0.000000,1.000000,15.000000,,,,0.000000,4.000000,4.000000,4.000000,4.000000,4.000000,4.000000,4.000000,4.000000,4.000000,4.000000,4.000000,4.000000,4.000000,4.000000,100.000000,,,,,,,,,,,,,,,,,,,,,,,,,,,,
1649271261.455565,1649271261.458140,40.000000,0.000000,4248.717773,4249.743652,4247.179688,4251.153809,4279.230957,4246.410156,4247.179688,4254.230957,4254.358887,4232.179688,4209.230957,4232.563965,4239.615234,4235.897461,0.000000,1.000000,15.000000,,,,0.000000,4.000000,4.000000,4.000000,4.000000,4.000000,4.000000,4.000000,4.000000,4.000000,4.000000,4.000000,4.000000,4.000000,4.000000,100.000000,,,,,,,,,,,,,,,,,10.000000,0.000000,0.350565,0.612488,-0.397217,0.586670,1.008804,-0.031250,-0.054688,-26.617838,-91.816589,-8.374151
1649271261.463371,1649271261.465944,41.000000,0.000000,4254.743652,4249.615234,4250.256348,4250.000000,4294.487305,4256.282227,4252.307617,4257.692383,4258.846191,4231.410156,4213.846191,4235.384766,4235.384766,4244.871582,0.000000,1.000000,15.000000,,,,0.000000,4.000000,4.000000,4.000000,4.000000,4.000000,4.000000,4.000000,4.000000,4.000000,4.000000,4.000000,4.000000,4.000000,4.000000,100.000000,,,,,,,,,,,,,,,,,,,,,,,,,,,,
1649271261.471177,1649271261.473748,42.000000,0.000000,4260.256348,4257.948730,4256.410156,4257.179688,4294.487305,4256.282227,4252.563965,4255.769043,4258.333496,4232.692383,4216.794922,4238.717773,4242.948730,4247.692383,0.000000,1.000000,15.000000,,,,0.000000,4.000000,4.000000,4.000000,4.000000,4.000000,4.000000,4.000000,4.000000,4.000000,4.000000,4.000000,4.000000,4.000000,4.000000,100.000000,,,,,,,,,,,,,,,,,,,,,,,,,,,,
1649271261.478984,1649271261.481453,43.000000,0.000000,4264.358887,4263.974121,4266.025879,4265.000000,4280.256348,4254.487305,4259.487305,4262.820313,4259.487305,4247.820313,4229.871582,4248.846191,4265.384766,4247.563965,0.000000,1.000000,15.000000,,,,0.000000,4.000000,4.000000,4.000000,4.000000,4.000000,4.000000,4.000000,4.000000,4.000000,4.000000,4.000000,4.000000,4.000000,4.000000,100.000000,,,,,,,,,,,,,,,,,,,,,,,,,,,,
1649271261.486790,1649271261.489357,44.000000,0.000000,4264.102539,4258.333496,4264.487305,4258.589844,4274.230957,4255.769043,4263.589844,4269.102539,4263.717773,4249.743652,4235.128418,4250.512695,4270.256348,4249.358887,0.000000,1.000000,15.000000,,,,0.000000,4.000000,4.000000,4.000000,4.000000,4.000000,4.000000,4.000000,4.000000,4.000000,4.000000,4.000000,4.000000,4.000000,4.000000,100.000000,,,,,,,,,,,,,,,,,11.000000,0.000000,0.350405,0.612244,-0.397644,0.586731,1.024918,-0.041505,-0.082033,-27.365530,-91.367973,-8.673228
1649271261.494596,1649271261.497161,45.000000,0.000000,4260.384766,4255.897461,4253.589844,4252.563965,4275.897461,4250.641113,4249.358887,4260.256348,4260.512695,4237.820313,4228.589844,4239.102539,4261.153809,4247.179688,0.000000,1.000000,15.000000,,,,0.000000,4.000000,4.000000,4.000000,4.000000,4.000000,4.000000,4.000000,4.000000,4.000000,4.000000,4.000000,4.000000,4.000000,4.000000,100.000000,,,,,,,,,,,,,,,,,,,,,,,,,,,,
1649271261.502403,1649271261.504965,46.000000,0.000000,4256.410156,4250.769043,4252.563965,4250.128418,4270.000000,4243.589844,4244.743652,4258.205078,4252.179688,4243.717773,4229.102539,4232.563965,4263.974121,4240.512695,0.000000,1.000000,15.000000,,,,0.000000,4.000000,4.000000,4.000000,4.000000,4.000000,4.000000,4.000000,4.000000,4.000000,4.000000,4.000000,4.000000,4.000000,4.000000,100.000000,,,,,,,,,,,,,,,,,,,,,,,,,,,,
1649271261.510209,1649271261.512669,47.000000,0.000000,4258.077148,4242.051270,4260.384766,4245.512695,4269.615234,4249.871582,4261.410156,4273.717773,4252.436035,4255.641113,4240.000000,4239.871582,4268.717773,4243.333496,0.000000,1.000000,15.000000,,,,0.000000,4.000000,4.000000,4.000000,4.000000,4.000000,4.000000,4.000000,4.000000,4.000000,4.000000,4.000000,4.000000,4.000000,4.000000,100.000000,,,,,,,,,,,,,,,,,,,,,,,,,,,,
1649271261.518016,1649271261.520573,48.000000,0.000000,4261.794922,4247.820313,4263.461426,4247.179688,4284.358887,4260.384766,4268.974121,4281.794922,4259.230957,4250.128418,4246.794922,4248.717773,4269.615234,4247.820313,0.000000,1.000000,15.000000,,,,0.000000,4.000000,4.000000,4.000000,4.000000,4.000000,4.000000,4.000000,4.000000,4.000000,4.000000,4.000000,4.000000,4.000000,4.000000,100.000000,,,,,,,,,,,,,,,,,12.000000,0.000000,0.350274,0.611938,-0.398499,0.586548,1.029801,-0.020508,-0.084474,-26.468300,-90.919357,-6.729228
1649271261.525822,1649271261.528377,49.000000,0.000000,4256.538574,4256.282227,4257.307617,4254.615234,4291.538574,4262.948730,4261.153809,4276.282227,4266.282227,4246.666504,4238.205078,4242.948730,4262.179688,4241.922852,0.000000,1.000000,15.000000,,,,0.000000,4.000000,4.000000,4.000000,4.000000,4.000000,4.000000,4.000000,4.000000,4.000000,4.000000,4.000000,4.000000,4.000000,4.000000,100.000000,,,,,,,,,,,,,,,,,,,,,,,,,,,,
1649271261.533628,1649271261.536181,50.000000,0.000000,4249.102539,4245.128418,4249.487305,4247.948730,4283.461426,4263.333496,4260.384766,4276.538574,4266.922852,4254.743652,4228.077148,4233.589844,4249.102539,4237.051270,0.000000,1.000000,15.000000,,,,0.000000,4.000000,4.000000,4.000000,4.000000,4.000000,4.000000,4.000000,4.000000,4.000000,4.000000,4.000000,4.000000,4.000000,4.000000,100.000000,,,,,,,,,,,,,,,,,,,,,,,,,,,,
1649271261.541435,1649271261.543885,51.000000,0.000000,4249.487305,4229.230957,4248.461426,4231.410156,4274.871582,4263.974121,4267.179688,4282.692383,4256.666504,4256.025879,4230.000000,4234.615234,4248.589844,4239.102539,0.000000,1.000000,15.000000,,,,0.000000,4.000000,4.000000,4.000000,4.000000,4.000000,4.000000,4.000000,4.000000,4.000000,4.000000,4.000000,4.000000,4.000000,4.000000,100.000000,,,,,,,,,,,,,,,,,,,,,,,,,,,,
1649271261.549241,1649271261.551789,52.000000,0.000000,4250.000000,4230.512695,4248.974121,4230.128418,4278.846191,4264.358887,4266.153809,4276.538574,4245.256348,4245.384766,4229.102539,4235.128418,4246.538574,4232.820313,0.000000,1.000000,15.000000,,,,0.000000,4.000000,4.000000,4.000000,4.000000,4.000000,4.000000,4.000000,4.000000,4.000000,4.000000,4.000000,4.000000,4.000000,4.000000,100.000000,,,,,,,,,,,,,,,,,13.000000,0.000000,0.350418,0.611450,-0.399658,0.586182,1.014176,-0.017090,-0.069825,-29.159990,-92.265205,-7.028306
1649271261.557047,1649271261.559593,53.000000,0.000000,4247.820313,4243.461426,4248.461426,4243.846191,4287.948730,4258.461426,4261.538574,4276.282227,4247.563965,4246.538574,4227.948730,4232.307617,4246.794922,4228.717773,0.000000,1.000000,15.000000,,,,0.000000,4.000000,4.000000,4.000000,4.000000,4.000000,4.000000,4.000000,4.000000,4.000000,4.000000,4.000000,4.000000,4.000000,4.000000,100.000000,,,,,,,,,,,,,,,,,,,,,,,,,,,,
1649271261.564854,1649271261.567397,54.000000,0.000000,4246.282227,4246.282227,4247.179688,4246.794922,4286.153809,4250.897461,4262.307617,4290.256348,4254.358887,4255.897461,4235.000000,4232.436035,4256.538574,4233.461426,0.000000,1.000000,15.000000,,,,0.000000,4.000000,4.000000,4.000000,4.000000,4.000000,4.000000,4.000000,4.000000,4.000000,4.000000,4.000000,4.000000,4.000000,4.000000,100.000000,,,,,,,,,,,,,,,,,,,,,,,,,,,,
1649271261.572660,1649271261.575101,55.000000,0.000000,4246.538574,4236.282227,4248.077148,4238.077148,4281.794922,4248.717773,4264.487305,4286.410156,4248.974121,4251.922852,4232.307617,4233.333496,4256.025879,4233.333496,0.000000,1.000000,15.000000,,,,0.000000,4.000000,4.000000,4.000000,4.000000,4.000000,4.000000,4.000000,4.000000,4.000000,4.000000,4.000000,4.000000,4.000000,4.000000,100.000000,,,,,,,,,,,,,,,,,,,,,,,,,,,,
1649271261.580466,1649271261.583005,56.000000,0.000000,4246.025879,4230.384766,4247.563965,4231.794922,4282.436035,4249.743652,4261.410156,4267.820313,4242.307617,4246.538574,4220.256348,4229.871582,4246.282227,4228.974121,0.000000,1.000000,15.000000,,,,0.000000,4.000000,4.000000,4.000000,4.000000,4.000000,4.000000,4.000000,4.000000,4.000000,4.000000,4.000000,4.000000,4.000000,4.000000,100.000000,,,,,,,,,,,,,,,,,14.000000,0.000000,0.351052,0.611389,-0.400269,0.585449,0.992203,-0.031739,-0.074220,-26.468300,-92.265205,-8.224613
1649271261.588273,1649271261.590809,57.000000,0.000000,4238.077148,4226.922852,4240.384766,4227.563965,4279.102539,4250.384766,4257.307617,4263.333496,4245.384766,4251.410156,4216.922852,4223.077148,4246.794922,4223.333496,0.000000,1.000000,15.000000,,,,0.000000,4.000000,4.000000,4.000000,4.000000,4.000000,4.000000,4.000000,4.000000,4.000000,4.000000,4.000000,4.000000,4.000000,4.000000,100.000000,,,,,,,,,,,,,,,,,,,,,,,,,,,,
1649271261.596079,1649271261.598712,58.000000,0.000000,4232.820313,4223.077148,4233.974121,4225.256348,4272.563965,4252.948730,4258.717773,4265.512695,4247.820313,4251.666504,4218.205078,4220.897461,4248.974121,4220.128418,0.000000,1.000000,15.000000,,,,0.000000,4.000000,4.000000,4.000000,4.000000,4.000000,4.000000,4.000000,4.000000,4.000000,4.000000,4.000000,4.000000,4.000000,4.000000,100.000000,,,,,,,,,,,,,,,,,,,,,,,,,,,,
1649271261.603886,1649271261.606516,59.000000,0.000000,4242.179688,4227.563965,4238.974121,4228.717773,4275.256348,4259.615234,4263.461426,4261.025879,4245.769043,4241.153809,4213.205078,4227.436035,4239.358887,4226.025879,0.000000,1.000000,15.000000,,,,0.000000,4.000000,4.000000,4.000000,4.000000,4.000000,4.000000,4.000000,4.000000,4.000000,4.000000,4.000000,4.000000,4.000000,4.000000,100.000000,,,,,,,,,,,,,,,,,,,,,,,,,,,,
1649271261.611692,1649271261.614220,60.000000,0.000000,4249.102539,4235.256348,4247.436035,4233.846191,4285.897461,4260.641113,4263.077148,4258.205078,4245.000000,4236.410156,4210.641113,4231.666504,4234.230957,4233.205078,0.000000,1.000000,15.000000,,,,0.000000,4.000000,4.000000,4.000000,4.000000,4.000000,4.000000,4.000000,4.000000,4.000000,4.000000,4.000000,4.000000,4.000000,4.000000,100.000000,,,,,,,,,,,,,,,,,15.000000,0.000000,0.351181,0.611389,-0.400513,0.585205,0.998550,-0.024903,-0.087404,-27.963684,-91.966125,-7.775998
1649271261.619498,1649271261.622024,61.000000,0.000000,4248.461426,4234.102539,4249.358887,4238.205078,4291.025879,4261.282227,4262.820313,4263.717773,4248.589844,4250.641113,4222.179688,4231.282227,4242.179688,4235.256348,0.000000,1.000000,15.000000,,,,0.000000,4.000000,4.000000,4.000000,4.000000,4.000000,4.000000,4.000000,4.000000,4.000000,4.000000,4.000000,4.000000,4.000000,4.000000,100.000000,,,,,,,,,,,,,,,,,,,,,,,,,,,,
1649271261.627305,1649271261.629928,62.000000,0.000000,4249.743652,4232.436035,4247.307617,4242.563965,4293.205078,4267.692383,4266.538574,4268.589844,4249.743652,4268.205078,4232.051270,4232.820313,4249.871582,4235.128418,0.000000,1.000000,15.000000,,,,0.000000,4.000000,4.000000,4.000000,4.000000,4.000000,4.000000,4.000000,4.000000,4.000000,4.000000,4.000000,4.000000,4.000000,4.000000,100.000000,,,,,,,,,,,,,,,,,,,,,,,,,,,,
1649271261.635111,1649271261.637732,63.000000,0.000000,4252.051270,4238.461426,4247.436035,4245.384766,4296.410156,4263.077148,4263.846191,4267.051270,4244.743652,4267.051270,4229.871582,4234.743652,4248.333496,4238.077148,0.000000,1.000000,15.000000,,,,0.000000,4.000000,4.000000,4.000000,4.000000,4.000000,4.000000,4.000000,4.000000,4.000000,4.000000,4.000000,4.000000,4.000000,4.000000,100.000000,,,,,,,,,,,,,,,,,,,,,,,,,,,,
1649271261.642917,1649271261.645436,64.000000,0.000000,4253.717773,4243.846191,4251.666504,4245.384766,4294.487305,4255.128418,4257.692383,4268.333496,4249.102539,4260.128418,4228.846191,4237.692383,4245.000000,4243.461426,3523.000000,1.000000,15.000000,,,,0.000000,4.000000,4.000000,4.000000,4.000000,4.000000,4.000000,4.000000,4.000000,4.000000,4.000000,4.000000,4.000000,4.000000,4.000000,100.000000,,,,,,,,,,,,,,,,,16.000000,0.000000,0.351815,0.610901,-0.400879,0.585083,0.996597,-0.006836,-0.074708,-27.664606,-91.966125,-7.775998
1649271261.650724,1649271261.653240,65.000000,0.000000,4258.333496,4246.794922,4257.692383,4246.538574,4289.615234,4260.384766,4260.512695,4276.538574,4265.897461,4271.538574,4237.563965,4244.358887,4252.692383,4247.563965,3604.000000,1.000000,15.000000,,,,0.000000,4.000000,4.000000,4.000000,4.000000,4.000000,4.000000,4.000000,4.000000,4.000000,4.000000,4.000000,4.000000,4.000000,4.000000,100.000000,,,,,,,,,,,,,,,,,,,,,,,,,,,,
1649271261.658530,1649271261.660944,66.000000,0.000000,4263.077148,4243.589844,4260.512695,4246.538574,4293.461426,4265.641113,4268.205078,4285.512695,4265.641113,4283.333496,4241.922852,4248.077148,4255.512695,4247.179688,3530.000000,1.000000,15.000000,,,,0.000000,4.000000,4.000000,4.000000,4.000000,4.000000,4.000000,4.000000,4.000000,4.000000,4.000000,4.000000,4.000000,4.000000,4.000000,100.000000,,,,,,,,,,,,,,,,,,,,,,,,,,,,
1649271261.666336,1649271261.668748,67.000000,0.000000,4258.077148,4236.153809,4254.871582,4242.948730,4300.128418,4257.436035,4264.871582,4278.717773,4248.974121,4271.025879,4232.948730,4245.128418,4246.538574,4245.769043,3598.000000,1.000000,15.000000,,,,0.000000,4.000000,4.000000,4.000000,4.000000,4.000000,4.000000,4.000000,4.000000,4.000000,4.000000,4.000000,4.000000,4.000000,4.000000,100.000000,,,,,,,,,,,,,,,,,,,,,,,,,,,,
1649271261.674143,1649271261.676452,68.000000,0.000000,4249.615234,4238.077148,4249.615234,4241.025879,4295.897461,4248.077148,4257.307617,4262.948730,4254.102539,4258.333496,4232.692383,4241.282227,4250.000000,4244.487305,3627.000000,1.000000,15.000000,,,,0.000000,4.000000,4.000000,4.000000,4.000000,4.000000,4.000000,4.000000,4.000000,4.000000,4.000000,4.000000,4.000000,4.000000,4.000000,100.000000,,,,,,,,,,,,,,,,,17.000000,0.000000,0.352378,0.610657,-0.400757,0.585083,1.011734,-0.011231,-0.069337,-28.262760,-91.367973,-5.831998
1649271261.681949,1649271261.684256,69.000000,0.000000,4255.256348,4245.641113,4257.307617,4246.282227,4295.512695,4252.051270,4260.897461,4263.589844,4268.077148,4270.512695,4245.769043,4246.666504,4263.461426,4246.538574,3598.000000,1.000000,15.000000,,,,0.000000,4.000000,4.000000,4.000000,4.000000,4.000000,4.000000,4.000000,4.000000,4.000000,4.000000,4.000000,4.000000,4.000000,4.000000,100.000000,,,,,,,,,,,,,,,,,,,,,,,,,,,,
1649271261.689756,1649271261.691960,70.000000,0.000000,4260.384766,4239.487305,4261.922852,4243.846191,4299.230957,4262.692383,4264.487305,4272.051270,4255.384766,4275.000000,4244.743652,4250.897461,4257.179688,4248.077148,3579.000000,1.000000,15.000000,,,,0.000000,4.000000,4.000000,4.000000,4.000000,4.000000,4.000000,4.000000,4.000000,4.000000,4.000000,4.000000,4.000000,4.000000,4.000000,100.000000,,,,,,,,,,,,,,,,,,,,,,,,,,,,
1649271261.697562,1649271261.699764,71.000000,0.000000,4250.641113,4229.743652,4250.128418,4235.000000,4292.692383,4261.153809,4261.153809,4266.794922,4242.948730,4252.436035,4228.589844,4241.025879,4239.743652,4242.692383,3609.000000,1.000000,15.000000,,,,0.000000,4.000000,4.000000,4.000000,4.000000,4.000000,4.000000,4.000000,4.000000,4.000000,4.000000,4.000000,4.000000,4.000000,4.000000,100.000000,,,,,,,,,,,,,,,,,,,,,,,,,,,,
1649271261.705368,1649271261.707468,72.000000,0.000000,4245.641113,4232.820313,4244.230957,4233.974121,4295.128418,4251.538574,4260.384766,4260.128418,4251.282227,4248.077148,4227.563965,4236.922852,4240.641113,4242.436035,2149.000000,1.000000,15.000000,,,,0.000000,4.000000,4.000000,4.000000,4.000000,4.000000,4.000000,4.000000,4.000000,4.000000,4.000000,4.000000,4.000000,4.000000,4.000000,100.000000,1.000000,100.000000,4.000000,4.000000,4.000000,4.000000,4.000000,4.000000,4.000000,4.000000,4.000000,4.000000,4.000000,4.000000,4.000000,4.000000,18.000000,0.000000,0.352466,0.610474,-0.400513,0.585388,1.010758,-0.014649,-0.069825,-28.561836,-92.115662,-7.327382
1649271261.713175,1649271261.715272,73.000000,0.000000,4250.641113,4234.487305,4253.589844,4237.436035,4305.512695,4252.948730,4263.461426,4263.846191,4252.179688,4264.871582,4232.307617,4245.512695,4245.897461,4246.538574,3611.000000,1.000000,15.000000,,,,0.000000,4.000000,4.000000,4.000000,4.000000,4.000000,4.000000,4.000000,4.000000,4.000000,4.000000,4.000000,4.000000,4.000000,4.000000,100.000000,,,,,,,,,,,,,,,,,,,,,,,,,,,,
1649271261.720981,1649271261.722976,74.000000,0.000000,4255.256348,4237.692383,4259.230957,4243.205078,4306.666504,4256.538574,4261.922852,4262.179688,4245.641113,4262.051270,4228.717773,4247.307617,4242.692383,4247.948730,3602.000000,1.000000,15.000000,,,,0.000000,4.000000,4.000000,4.000000,4.000000,4.000000,4.000000,4.000000,4.000000,4.000000,4.000000,4.000000,4.000000,4.000000,4.000000,100.000000,,,,,,,,,,,,,,,,,,,,,,,,,,,,
1649271261.728787,1649271261.730780,75.000000,0.000000,4263.974121,4250.384766,4264.358887,4250.000000,4304.615234,4256.922852,4261.666504,4263.846191,4260.000000,4257.307617,4237.820313,4251.282227,4247.692383,4255.769043,3598.000000,1.000000,15.000000,,,,0.000000,4.000000,4.000000,4.000000,4.000000,4.000000,4.000000,4.000000,4.000000,4.000000,4.000000,4.000000,4.000000,4.000000,4.000000,100.000000,,,,,,,,,,,,,,,,,,,,,,,,,,,,
1649271261.736594,1649271261.738484,76.000000,0.000000,4271.410156,4251.922852,4270.897461,4253.333496,4305.769043,4256.922852,4265.512695,4276.153809,4283.461426,4273.205078,4251.666504,4262.179688,4258.077148,4265.897461,3550.000000,1.000000,15.000000,,,,0.000000,4.000000,4.000000,4.000000,4.000000,4.000000,4.000000,4.000000,4.000000,4.000000,4.000000,4.000000,4.000000,4.000000,4.000000,100.000000,,,,,,,,,,,,,,,,,19.000000,0.000000,0.352485,0.610352,-0.400146,0.585754,1.003433,-0.026856,-0.072755,-28.561836,-91.367973,-6.878767
1649271261.744400,1649271261.746288,77.000000,0.000000,4260.128418,4237.820313,4262.179688,4244.102539,4297.948730,4249.615234,4263.077148,4272.692383,4278.333496,4271.025879,4239.487305,4252.436035,4252.563965,4252.948730,3503.000000,1.000000,15.000000,,,,0.000000,4.000000,4.000000,4.000000,4.000000,4.000000,4.000000,4.000000,4.000000,4.000000,4.000000,4.000000,4.000000,4.000000,4.000000,100.000000,,,,,,,,,,,,,,,,,,,,,,,,,,,,
1649271261.752206,1649271261.753992,78.000000,0.000000,4246.025879,4228.205078,4247.051270,4231.538574,4291.025879,4251.025879,4262.692383,4263.205078,4257.436035,4248.974121,4220.897461,4232.051270,4239.487305,4234.487305,3602.000000,1.000000,15.000000,,,,0.000000,4.000000,4.000000,4.000000,4.000000,4.000000,4.000000,4.000000,4.000000,4.000000,4.000000,4.000000,4.000000,4.000000,4.000000,100.000000,,,,,,,,,,,,,,,,,,,,,,,,,,,,
1649271261.760013,1649271261.761796,79.000000,0.000000,4243.974121,4234.230957,4243.461426,4236.153809,4303.333496,4264.487305,4265.769043,4268.589844,4246.410156,4241.538574,4219.102539,4228.846191,4233.205078,4236.025879,3598.000000,1.000000,15.000000,,,,0.000000,4.000000,4.000000,4.000000,4.000000,4.000000,4.000000,4.000000,4.000000,4.000000,4.000000,4.000000,4.000000,4.000000,4.000000,100.000000,,,,,,,,,,,,,,,,,,,,,,,,,,,,
1649271261.767819,1649271261.769600,80.000000,0.000000,4243.717773,4238.461426,4245.000000,4244.615234,4314.743652,4262.820313,4266.538574,4275.769043,4238.846191,4245.512695,4217.692383,4228.077148,4231.153809,4234.743652,3550.000000,1.000000,15.000000,,,,0.000000,4.000000,4.000000,4.000000,4.000000,4.000000,4.000000,4.000000,4.000000,4.000000,4.000000,4.000000,4.000000,4.000000,4.000000,100.000000,,,,,,,,,,,,,,,,,20.000000,0.000000,0.352595,0.610291,-0.399963,0.585876,1.018082,-0.026368,-0.074220,-27.963684,-90.919357,-7.775998
1649271261.775626,1649271261.777404,81.000000,0.000000,4244.358887,4233.205078,4245.769043,4238.205078,4307.307617,4258.974121,4271.794922,4281.666504,4241.538574,4258.333496,4220.384766,4227.948730,4240.000000,4233.974121,3503.000000,1.000000,15.000000,,,,0.000000,4.000000,4.000000,4.000000,4.000000,4.000000,4.000000,4.000000,4.000000,4.000000,4.000000,4.000000,4.000000,4.000000,4.000000,100.000000,,,,,,,,,,,,,,,,,,,,,,,,,,,,
1649271261.783432,1649271261.785208,82.000000,0.000000,4248.333496,4229.743652,4249.487305,4231.153809,4297.307617,4264.487305,4274.102539,4287.820313,4250.769043,4264.615234,4231.410156,4234.615234,4248.846191,4243.205078,3602.000000,1.000000,15.000000,,,,0.000000,4.000000,4.000000,4.000000,4.000000,4.000000,4.000000,4.000000,4.000000,4.000000,4.000000,4.000000,4.000000,4.000000,4.000000,100.000000,,,,,,,,,,,,,,,,,,,,,,,,,,,,
1649271261.791238,1649271261.793012,83.000000,0.000000,4247.051270,4231.410156,4247.563965,4233.461426,4297.948730,4255.897461,4265.512695,4278.589844,4244.615234,4243.461426,4224.615234,4229.615234,4239.871582,4240.128418,3598.000000,1.000000,15.000000,,,,0.000000,4.000000,4.000000,4.000000,4.000000,4.000000,4.000000,4.000000,4.000000,4.000000,4.000000,4.000000,4.000000,4.000000,4.000000,100.000000,,,,,,,,,,,,,,,,,,,,,,,,,,,,
1649271261.799045,1649271261.800816,84.000000,0.000000,4242.307617,4229.358887,4242.563965,4230.897461,4291.666504,4249.743652,4258.461426,4266.922852,4235.000000,4230.897461,4211.282227,4224.358887,4235.128418,4233.461426,3550.000000,1.000000,15.000000,,,,0.000000,4.000000,4.000000,4.000000,4.000000,4.000000,4.000000,4.000000,4.000000,4.000000,4.000000,4.000000,4.000000,4.000000,4.000000,100.000000,,,,,,,,,,,,,,,,,21.000000,0.000000,0.353025,0.609863,-0.400146,0.585938,1.020523,-0.016114,-0.054200,-27.365530,-90.620277,-7.925536
1649271261.806851,1649271261.808621,85.000000,0.000000,4251.922852,4233.333496,4255.256348,4237.692383,4288.974121,4263.717773,4263.589844,4275.384766,4245.641113,4250.512695,4223.846191,4236.922852,4253.461426,4247.436035,3503.000000,1.000000,15.000000,,,,0.000000,4.000000,4.000000,4.000000,4.000000,4.000000,4.000000,4.000000,4.000000,4.000000,4.000000,4.000000,4.000000,4.000000,4.000000,100.000000,,,,,,,,,,,,,,,,,,,,,,,,,,,,
1649271261.814657,1649271261.816425,86.000000,0.000000,4264.230957,4241.922852,4267.692383,4248.077148,4305.256348,4268.333496,4268.333496,4282.179688,4259.871582,4255.641113,4239.102539,4243.589844,4261.794922,4258.589844,3602.000000,1.000000,15.000000,,,,0.000000,4.000000,4.000000,4.000000,4.000000,4.000000,4.000000,4.000000,4.000000,4.000000,4.000000,4.000000,4.000000,4.000000,4.000000,100.000000,,,,,,,,,,,,,,,,,,,,,,,,,,,,
1649271261.822464,1649271261.824328,87.000000,0.000000,4257.307617,4235.641113,4258.077148,4239.487305,4304.871582,4257.179688,4266.025879,4270.641113,4258.077148,4241.153809,4229.230957,4230.769043,4249.230957,4246.538574,3598.000000,1.000000,15.000000,,,,0.000000,4.000000,4.000000,4.000000,4.000000,4.000000,4.000000,4.000000,4.000000,4.000000,4.000000,4.000000,4.000000,4.000000,4.000000,100.000000,,,,,,,,,,,,,,,,,,,,,,,,,,,,
1649271261.830270,1649271261.832233,88.000000,0.000000,4251.922852,4232.051270,4253.461426,4236.025879,4295.769043,4258.846191,4263.589844,4263.461426,4255.641113,4249.615234,4222.692383,4228.589844,4246.025879,4244.871582,3550.000000,1.000000,15.000000,,,,0.000000,4.000000,4.000000,4.000000,4.000000,4.000000,4.000000,4.000000,4.000000,4.000000,4.000000,4.000000,4.000000,4.000000,4.000000,100.000000,,,,,,,,,,,,,,,,,22.000000,0.000000,0.353826,0.609436,-0.400269,0.585815,1.018570,-0.020020,-0.069337,-26.468300,-91.966125,-6.280613
1649271261.838076,1649271261.840037,89.000000,0.000000,4262.692383,4247.563965,4265.512695,4249.871582,4306.025879,4262.948730,4261.922852,4266.025879,4258.974121,4253.333496,4231.538574,4242.563965,4251.666504,4257.179688,3503.000000,1.000000,15.000000,,,,0.000000,4.000000,4.000000,4.000000,4.000000,4.000000,4.000000,4.000000,4.000000,4.000000,4.000000,4.000000,4.000000,4.000000,4.000000,100.000000,,,,,,,,,,,,,,,,,,,,,,,,,,,,
1649271261.845883,1649271261.847841,90.000000,0.000000,4263.461426,4247.948730,4266.025879,4248.205078,4305.128418,4253.717773,4263.333496,4265.000000,4263.846191,4235.000000,4234.358887,4243.077148,4250.769043,4257.436035,3602.000000,1.000000,15.000000,,,,0.000000,4.000000,4.000000,4.000000,4.000000,4.000000,4.000000,4.000000,4.000000,4.000000,4.000000,4.000000,4.000000,4.000000,4.000000,100.000000,,,,,,,,,,,,,,,,,,,,,,,,,,,,
1649271261.853689,1649271261.855545,91.000000,0.000000,4248.461426,4231.922852,4255.128418,4234.487305,4289.230957,4250.256348,4262.436035,4259.487305,4262.051270,4234.102539,4227.692383,4230.512695,4245.384766,4247.051270,3598.000000,1.000000,15.000000,,,,0.000000,4.000000,4.000000,4.000000,4.000000,4.000000,4.000000,4.000000,4.000000,4.000000,4.000000,4.000000,4.000000,4.000000,4.000000,100.000000,,,,,,,,,,,,,,,,,,,,,,,,,,,,
1649271261.861496,1649271261.863449,92.000000,0.000000,4249.615234,4237.051270,4257.563965,4238.846191,4298.974121,4259.230957,4263.077148,4264.230957,4259.487305,4250.769043,4228.846191,4235.384766,4246.666504,4246.153809,3550.000000,1.000000,15.000000,,,,0.000000,4.000000,4.000000,4.000000,4.000000,4.000000,4.000000,4.000000,4.000000,4.000000,4.000000,4.000000,4.000000,4.000000,4.000000,100.000000,,,,,,,,,,,,,,,,,23.000000,0.000000,0.354657,0.609009,-0.400452,0.585632,1.027848,-0.002441,-0.067384,-27.215992,-92.265205,-7.775998
1649271261.869302,1649271261.871253,93.000000,0.000000,4263.974121,4251.025879,4265.897461,4249.230957,4317.563965,4266.666504,4270.384766,4276.282227,4268.077148,4251.666504,4234.871582,4248.974121,4250.128418,4252.692383,3503.000000,1.000000,15.000000,,,,0.000000,4.000000,4.000000,4.000000,4.000000,4.000000,4.000000,4.000000,4.000000,4.000000,4.000000,4.000000,4.000000,4.000000,4.000000,100.000000,,,,,,,,,,,,,,,,,,,,,,,,,,,,
1649271261.877108,1649271261.879057,94.000000,0.000000,4261.025879,4247.563965,4265.256348,4248.846191,4314.230957,4264.615234,4272.179688,4276.922852,4266.410156,4244.358887,4231.282227,4242.179688,4247.563965,4250.128418,3602.000000,1.000000,15.000000,,,,0.000000,4.000000,4.000000,4.000000,4.000000,4.000000,4.000000,4.000000,4.000000,4.000000,4.000000,4.000000,4.000000,4.000000,4.000000,100.000000,,,,,,,,,,,,,,,,,,,,,,,,,,,,
1649271261.884915,1649271261.886761,95.000000,0.000000,4249.230957,4242.820313,4260.128418,4245.641113,4309.102539,4262.179688,4266.153809,4274.743652,4252.179688,4248.846191,4227.820313,4230.769043,4246.153809,4247.051270,3598.000000,1.000000,15.000000,,,,0.000000,4.000000,4.000000,4.000000,4.000000,4.000000,4.000000,4.000000,4.000000,4.000000,4.000000,4.000000,4.000000,4.000000,4.000000,100.000000,,,,,,,,,,,,,,,,,,,,,,,,,,,,
1649271261.892721,1649271261.894665,96.000000,0.000000,4246.153809,4242.948730,4257.436035,4242.307617,4309.487305,4261.666504,4263.846191,4274.871582,4247.051270,4249.230957,4228.717773,4232.692383,4240.512695,4248.589844,3550.000000,1.000000,15.000000,,,,0.000000,4.000000,4.000000,4.000000,4.000000,4.000000,4.000000,4.000000,4.000000,4.000000,4.000000,4.000000,4.000000,4.000000,4.000000,100.000000,,,,,,,,,,,,,,,,,24.000000,0.000000,0.354758,0.609009,-0.400452,0.585571,1.007340,-0.006836,-0.059083,-26.617838,-92.115662,-7.626459
1649271261.900527,1649271261.902469,97.000000,0.000000,4248.717773,4243.461426,4259.358887,4241.538574,4308.974121,4261.153809,4265.641113,4268.846191,4252.179688,4250.000000,4228.461426,4235.128418,4234.230957,4249.358887,3503.000000,1.000000,15.000000,,,,0.000000,4.000000,4.000000,4.000000,4.000000,4.000000,4.000000,4.000000,4.000000,4.000000,4.000000,4.000000,4.000000,4.000000,4.000000,100.000000,,,,,,,,,,,,,,,,,,,,,,,,,,,,
1649271261.908334,1649271261.910274,98.000000,0.000000,4248.846191,4245.512695,4258.077148,4244.743652,4309.102539,4255.384766,4263.077148,4261.666504,4252.051270,4256.538574,4230.256348,4232.051270,4239.230957,4249.230957,3602.000000,1.000000,15.000000,,,,0.000000,4.000000,4.000000,4.000000,4.000000,4.000000,4.000000,4.000000,4.000000,4.000000,4.000000,4.000000,4.000000,4.000000,4.000000,100.000000,,,,,,,,,,,,,,,,,,,,,,,,,,,,
1649271261.916140,1649271261.917978,99.000000,0.000000,4248.846191,4244.102539,4253.205078,4245.769043,4309.871582,4246.922852,4258.846191,4260.897461,4247.051270,4251.666504,4232.179688,4231.666504,4247.436035,4246.538574,3598.000000,1.000000,15.000000,,,,0.000000,4.000000,4.000000,4.000000,4.000000,4.000000,4.000000,4.000000,4.000000,4.000000,4.000000,4.000000,4.000000,4.000000,4.000000,100.000000,,,,,,,,,,,,,,,,,,,,,,,,,,,,
1649271261.923947,1649271261.925882,100.000000,0.000000,4256.922852,4243.205078,4257.948730,4244.487305,4311.922852,4254.487305,4261.153809,4264.102539,4250.000000,4248.717773,4234.358887,4241.282227,4249.487305,4252.307617,3550.000000,1.000000,15.000000,,,,0.000000,4.000000,4.000000,4.000000,4.000000,4.000000,4.000000,4.000000,4.000000,4.000000,4.000000,4.000000,4.000000,4.000000,4.000000,100.000000,,,,,,,,,,,,,,,,,25.000000,0.000000,0.355125,0.609070,-0.400391,0.585327,1.005386,-0.000977,-0.065919,-28.412298,-93.012894,-7.028306
1649271261.931753,1649271261.933686,101.000000,0.000000,4264.487305,4248.077148,4265.641113,4247.436035,4307.820313,4265.384766,4265.128418,4266.025879,4253.333496,4257.563965,4240.512695,4248.589844,4248.333496,4262.820313,3503.000000,1.000000,15.000000,,,,0.000000,4.000000,4.000000,4.000000,4.000000,4.000000,4.000000,4.000000,4.000000,4.000000,4.000000,4.000000,4.000000,4.000000,4.000000,100.000000,,,,,,,,,,,,,,,,,,,,,,,,,,,,
1649271261.939559,1649271261.941490,102.000000,0.000000,4262.820313,4247.563965,4262.179688,4247.307617,4303.846191,4263.846191,4264.743652,4263.974121,4243.589844,4263.077148,4247.179688,4246.025879,4250.128418,4261.282227,3602.000000,1.000000,15.000000,,,,0.000000,4.000000,4.000000,4.000000,4.000000,4.000000,4.000000,4.000000,4.000000,4.000000,4.000000,4.000000,4.000000,4.000000,4.000000,100.000000,,,,,,,,,,,,,,,,,,,,,,,,,,,,
1649271261.947366,1649271261.949194,103.000000,0.000000,4262.563965,4246.025879,4261.410156,4246.410156,4314.871582,4262.179688,4262.307617,4260.897461,4232.692383,4261.025879,4248.461426,4244.358887,4257.051270,4256.538574,3598.000000,1.000000,15.000000,,,,0.000000,4.000000,4.000000,4.000000,4.000000,4.000000,4.000000,4.000000,4.000000,4.000000,4.000000,4.000000,4.000000,4.000000,4.000000,100.000000,,,,,,,,,,,,,,,,,,,,,,,,,,,,
1649271261.955172,1649271261.957098,104.000000,0.000000,4266.025879,4252.179688,4267.692383,4250.384766,4321.922852,4263.846191,4261.538574,4262.436035,4238.077148,4258.333496,4245.769043,4247.436035,4263.205078,4261.794922,3550.000000,1.000000,15.000000,,,,0.000000,4.000000,4.000000,4.000000,4.000000,4.000000,4.000000,4.000000,4.000000,4.000000,4.000000,4.000000,4.000000,4.000000,4.000000,100.000000,,,,,,,,,,,,,,,,,26.000000,0.000000,0.355379,0.609375,-0.400146,0.585022,1.006851,-0.028809,-0.057130,-27.814146,-92.863358,-7.626459
1649271261.962978,1649271261.964902,105.000000,0.000000,4263.974121,4253.717773,4266.025879,4251.794922,4312.692383,4263.589844,4263.077148,4264.743652,4250.256348,4257.051270,4243.205078,4245.384766,4260.128418,4262.948730,3503.000000,1.000000,15.000000,,,,0.000000,4.000000,4.000000,4.000000,4.000000,4.000000,4.000000,4.000000,4.000000,4.000000,4.000000,4.000000,4.000000,4.000000,4.000000,100.000000,,,,,,,,,,,,,,,,,,,,,,,,,,,,
1649271261.970785,1649271261.972806,106.000000,0.000000,4263.717773,4249.871582,4262.307617,4251.282227,4308.974121,4261.538574,4262.051270,4263.846191,4250.512695,4260.512695,4242.948730,4240.384766,4258.974121,4260.000000,3602.000000,1.000000,15.000000,,,,0.000000,4.000000,4.000000,4.000000,4.000000,4.000000,4.000000,4.000000,4.000000,4.000000,4.000000,4.000000,4.000000,4.000000,4.000000,100.000000,,,,,,,,,,,,,,,,,,,,,,,,,,,,
1649271261.978591,1649271261.980609,107.000000,0.000000,4265.512695,4248.077148,4263.461426,4249.102539,4314.615234,4253.461426,4258.717773,4262.436035,4246.666504,4257.820313,4239.230957,4237.179688,4262.436035,4259.743652,3598.000000,1.000000,15.000000,,,,0.000000,4.000000,4.000000,4.000000,4.000000,4.000000,4.000000,4.000000,4.000000,4.000000,4.000000,4.000000,4.000000,4.000000,4.000000,100.000000,,,,,,,,,,,,,,,,,,,,,,,,,,,,
1649271261.986397,1649271261.988513,108.000000,0.000000,4258.461426,4246.666504,4261.666504,4247.179688,4313.077148,4246.282227,4259.871582,4264.358887,4249.487305,4248.333496,4233.461426,4233.974121,4254.487305,4254.743652,3550.000000,1.000000,15.000000,,,,0.000000,4.000000,4.000000,4.000000,4.000000,4.000000,4.000000,4.000000,4.000000,4.000000,4.000000,4.000000,4.000000,4.000000,4.000000,100.000000,,,,,,,,,,,,,,,,,27.000000,0.000000,0.355676,0.609436,-0.400146,0.584778,0.998062,-0.002930,-0.058595,-29.608606,-91.667046,-7.775998
1649271261.994204,1649271261.996317,109.000000,0.000000,4254.358887,4246.282227,4258.717773,4247.820313,4309.102539,4256.410156,4264.358887,4273.717773,4250.384766,4253.974121,4231.666504,4231.666504,4246.794922,4247.820313,3503.000000,1.000000,15.000000,,,,0.000000,4.000000,4.000000,4.000000,4.000000,4.000000,4.000000,4.000000,4.000000,4.000000,4.000000,4.000000,4.000000,4.000000,4.000000,100.000000,,,,,,,,,,,,,,,,,,,,,,,,,,,,
1649271262.002010,1649271262.004221,110.000000,0.000000,4258.717773,4244.871582,4260.897461,4245.897461,4310.256348,4263.717773,4264.743652,4276.538574,4240.128418,4265.897461,4232.179688,4232.563965,4253.846191,4249.358887,3602.000000,1.000000,15.000000,,,,0.000000,4.000000,4.000000,4.000000,4.000000,4.000000,4.000000,4.000000,4.000000,4.000000,4.000000,4.000000,4.000000,4.000000,4.000000,100.000000,,,,,,,,,,,,,,,,,,,,,,,,,,,,
1649271262.009817,1649271262.012025,111.000000,0.000000,4261.794922,4248.205078,4263.205078,4250.000000,4312.820313,4253.333496,4262.692383,4266.025879,4229.102539,4261.410156,4237.948730,4241.666504,4261.666504,4259.358887,3598.000000,1.000000,15.000000,,,,0.000000,4.000000,4.000000,4.000000,4.000000,4.000000,4.000000,4.000000,4.000000,4.000000,4.000000,4.000000,4.000000,4.000000,4.000000,100.000000,,,,,,,,,,,,,,,,,,,,,,,,,,,,
1649271262.017623,1649271262.019929,112.000000,0.000000,4262.051270,4257.948730,4264.487305,4259.102539,4312.563965,4246.666504,4261.922852,4262.820313,4230.128418,4252.179688,4245.641113,4248.589844,4261.282227,4265.000000,3550.000000,1.000000,15.000000,,,,0.000000,4.000000,4.000000,4.000000,4.000000,4.000000,4.000000,4.000000,4.000000,4.000000,4.000000,4.000000,4.000000,4.000000,4.000000,100.000000,,,,,,,,,,,,,,,,,28.000000,0.000000,0.356040,0.609436,-0.400269,0.584473,1.004898,-0.023926,-0.058595,-26.767376,-91.218430,-7.028306
1649271262.025429,1649271262.027733,113.000000,0.000000,4260.384766,4258.589844,4262.948730,4257.692383,4313.333496,4248.846191,4255.128418,4270.256348,4233.589844,4250.512695,4240.512695,4240.256348,4254.871582,4256.794922,3503.000000,1.000000,15.000000,,,,0.000000,4.000000,4.000000,4.000000,4.000000,4.000000,4.000000,4.000000,4.000000,4.000000,4.000000,4.000000,4.000000,4.000000,4.000000,100.000000,,,,,,,,,,,,,,,,,,,,,,,,,,,,
1649271262.033236,1649271262.035437,114.000000,0.000000,4252.563965,4246.666504,4254.615234,4247.820313,4309.743652,4247.820313,4248.589844,4263.333496,4229.487305,4245.256348,4229.615234,4229.102539,4245.641113,4245.897461,3602.000000,1.000000,15.000000,,,,0.000000,4.000000,4.000000,4.000000,4.000000,4.000000,4.000000,4.000000,4.000000,4.000000,4.000000,4.000000,4.000000,4.000000,4.000000,100.000000,,,,,,,,,,,,,,,,,,,,,,,,,,,,
1649271262.041042,1649271262.043241,115.000000,0.000000,4246.922852,4243.846191,4247.051270,4246.538574,4300.641113,4245.384766,4247.820313,4247.948730,4229.358887,4240.897461,4228.974121,4227.436035,4242.692383,4246.153809,3598.000000,1.000000,15.000000,,,,0.000000,4.000000,4.000000,4.000000,4.000000,4.000000,4.000000,4.000000,4.000000,4.000000,4.000000,4.000000,4.000000,4.000000,4.000000,100.000000,,,,,,,,,,,,,,,,,,,,,,,,,,,,
1649271262.048849,1649271262.050945,116.000000,0.000000,4252.948730,4250.384766,4249.102539,4251.025879,4303.717773,4249.743652,4247.307617,4250.641113,4230.769043,4246.794922,4233.589844,4231.666504,4248.461426,4249.487305,3550.000000,1.000000,15.000000,,,,0.000000,4.000000,4.000000,4.000000,4.000000,4.000000,4.000000,4.000000,4.000000,4.000000,4.000000,4.000000,4.000000,4.000000,4.000000,100.000000,,,,,,,,,,,,,,,,,29.000000,0.000000,0.356521,0.609192,-0.400391,0.584351,1.022477,-0.007813,-0.073243,-27.664606,-90.919357,-8.224613
1649271262.056655,1649271262.058749,117.000000,0.000000,4258.846191,4247.307617,4257.179688,4247.948730,4313.846191,4261.153809,4253.717773,4264.102539,4227.948730,4256.794922,4239.743652,4236.922852,4248.846191,4247.563965,3503.000000,1.000000,15.000000,,,,0.000000,4.000000,4.000000,4.000000,4.000000,4.000000,4.000000,4.000000,4.000000,4.000000,4.000000,4.000000,4.000000,4.000000,4.000000,100.000000,,,,,,,,,,,,,,,,,,,,,,,,,,,,
1649271262.064461,1649271262.066453,118.000000,0.000000,4261.410156,4245.769043,4259.615234,4247.051270,4314.615234,4263.974121,4260.512695,4265.512695,4230.000000,4262.820313,4245.512695,4239.102539,4245.384766,4250.128418,3602.000000,1.000000,15.000000,,,,0.000000,4.000000,4.000000,4.000000,4.000000,4.000000,4.000000,4.000000,4.000000,4.000000,4.000000,4.000000,4.000000,4.000000,4.000000,100.000000,,,,,,,,,,,,,,,,,,,,,,,,,,,,
1649271262.072267,1649271262.074256,119.000000,0.000000,4259.615234,4251.153809,4254.743652,4255.000000,4311.025879,4254.743652,4255.000000,4254.102539,4235.384766,4254.230957,4237.692383,4235.897461,4247.179688,4252.179688,3598.000000,1.000000,15.000000,,,,0.000000,4.000000,4.000000,4.000000,4.000000,4.000000,4.000000,4.000000,4.000000,4.000000,4.000000,4.000000,4.000000,4.000000,4.000000,100.000000,,,,,,,,,,,,,,,,,,,,,,,,,,,,
1649271262.080074,1649271262.082061,120.000000,0.000000,4250.256348,4251.282227,4247.307617,4260.000000,4306.153809,4248.205078,4248.846191,4246.922852,4232.692383,4234.871582,4228.205078,4229.871582,4245.384766,4246.025879,3550.000000,1.000000,15.000000,,,,0.000000,4.000000,4.000000,4.000000,4.000000,4.000000,4.000000,4.000000,4.000000,4.000000,4.000000,4.000000,4.000000,4.000000,4.000000,100.000000,,,,,,,,,,,,,,,,,30.000000,0.000000,0.357237,0.608948,-0.400391,0.584167,1.015640,-0.013672,-0.060060,-28.262760,-93.611046,-8.673228
1649271262.087880,1649271262.089865,121.000000,0.000000,4250.384766,4255.256348,4245.769043,4260.384766,4303.589844,4249.358887,4247.692383,4246.794922,4225.512695,4226.794922,4236.410156,4229.487305,4240.384766,4246.922852,3503.000000,1.000000,15.000000,,,,0.000000,4.000000,4.000000,4.000000,4.000000,4.000000,4.000000,4.000000,4.000000,4.000000,4.000000,4.000000,4.000000,4.000000,4.000000,100.000000,,,,,,,,,,,,,,,,,,,,,,,,,,,,
1649271262.095687,1649271262.097669,122.000000,0.000000,4263.717773,4265.897461,4255.000000,4265.128418,4309.615234,4253.077148,4247.820313,4250.512695,4224.615234,4242.820313,4248.333496,4238.333496,4246.153809,4258.589844,3602.000000,1.000000,15.000000,,,,0.000000,4.000000,4.000000,4.000000,4.000000,4.000000,4.000000,4.000000,4.000000,4.000000,4.000000,4.000000,4.000000,4.000000,4.000000,100.000000,,,,,,,,,,,,,,,,,,,,,,,,,,,,
1649271262.103493,1649271262.105473,123.000000,0.000000,4266.025879,4267.692383,4264.358887,4268.205078,4314.230957,4258.461426,4254.487305,4254.743652,4231.410156,4261.410156,4247.307617,4242.692383,4254.487305,4262.692383,3598.000000,1.000000,15.000000,,,,0.000000,4.000000,4.000000,4.000000,4.000000,4.000000,4.000000,4.000000,4.000000,4.000000,4.000000,4.000000,4.000000,4.000000,4.000000,100.000000,,,,,,,,,,,,,,,,,,,,,,,,,,,,
1649271262.111299,1649271262.113277,124.000000,0.000000,4259.358887,4262.692383,4261.922852,4263.846191,4310.000000,4256.666504,4257.436035,4253.205078,4232.948730,4254.230957,4243.846191,4236.025879,4248.717773,4259.871582,3550.000000,1.000000,15.000000,,,,0.000000,4.000000,4.000000,4.000000,4.000000,4.000000,4.000000,4.000000,4.000000,4.000000,4.000000,4.000000,4.000000,4.000000,4.000000,100.000000,,,,,,,,,,,,,,,,,31.000000,0.000000,0.357716,0.608704,-0.400513,0.584045,1.009293,-0.004883,-0.062989,-27.664606,-92.265205,-8.224613
1649271262.119106,1649271262.121081,125.000000,0.000000,4263.333496,4264.230957,4257.436035,4262.307617,4310.512695,4250.641113,4251.282227,4248.205078,4225.256348,4234.487305,4246.922852,4231.666504,4245.000000,4262.307617,3503.000000,1.000000,15.000000,,,,0.000000,4.000000,4.000000,4.000000,4.000000,4.000000,4.000000,4.000000,4.000000,4.000000,4.000000,4.000000,4.000000,4.000000,4.000000,100.000000,,,,,,,,,,,,,,,,,,,,,,,,,,,,
1649271262.126912,1649271262.128886,126.000000,0.000000,4265.000000,4264.871582,4261.282227,4262.820313,4313.974121,4255.256348,4249.871582,4245.769043,4220.512695,4233.077148,4249.871582,4237.436035,4256.025879,4264.102539,3602.000000,1.000000,15.000000,,,,0.000000,4.000000,4.000000,4.000000,4.000000,4.000000,4.000000,4.000000,4.000000,4.000000,4.000000,4.000000,4.000000,4.000000,4.000000,100.000000,,,,,,,,,,,,,,,,,,,,,,,,,,,,
1649271262.134719,1649271262.136789,127.000000,0.000000,4263.846191,4263.205078,4264.230957,4263.589844,4311.410156,4261.666504,4251.794922,4249.743652,4230.128418,4251.538574,4252.948730,4244.358887,4264.102539,4262.051270,52.000000,1.000000,15.000000,,,,0.000000,4.000000,4.000000,4.000000,4.000000,4.000000,4.000000,4.000000,4.000000,4.000000,4.000000,4.000000,4.000000,4.000000,4.000000,100.000000,,,,,,,,,,,,,,,,,,,,,,,,,,,,
1649271262.142525,1649271262.144693,0.000000,0.000000,4274.743652,4265.512695,4264.487305,4267.563965,4308.974121,4261.794922,4256.282227,4260.384766,4247.307617,4272.051270,4261.025879,4250.384766,4264.358887,4265.897461,3524.000000,1.000000,15.000000,,,,0.000000,4.000000,4.000000,4.000000,4.000000,4.000000,4.000000,4.000000,4.000000,4.000000,4.000000,4.000000,4.000000,4.000000,4.000000,100.000000,,,,,,,,,,,,,,,,,0.000000,0.000000,0.357948,0.608765,-0.400391,0.583923,1.009781,-0.009277,-0.062989,-28.412298,-91.667046,-6.729228
